%OpenBCI Raw EEG Data
%
%Sample Rate = 250.0 Hz
%First Column = SampleIndex
%Other Columns = EEG data in microvolts with optional columns at end being unscaled Aux data
0, -180741.70, -41283.83, 34012.11, 30905.33, -167960.64, -187500.02, -24378.67, 164237.38, 0.00, 0.00, 0.00, 0.00, 0.00, 0.00, 0.00, 0.00, 0
1, -180742.06, -41267.49, 34012.87, 30909.36, -167963.11, -187500.02, -24375.49, 164242.42, 0.00, 0.00, 0.00, 0.00, 0.00, 0.00, 0.00, 0.00, 0
2, -180745.86, -41274.55, 33992.20, 30939.33, -167962.53, -187500.02, -24391.81, 164227.84, 0.00, 0.00, 0.00, 0.00, 0.00, 0.00, 0.00, 0.00, 0
3, -180750.48, -41267.38, 33985.78, 30917.27, -167961.91, -187500.02, -24395.74, 164224.03, 0.00, 0.00, 0.00, 0.00, 0.00, 0.00, 0.00, 0.00, 0
4, -180750.03, -41237.38, 34000.54, 30907.50, -167962.56, -187500.02, -24381.82, 164239.97, 0.00, 0.00, 0.00, 0.00, 0.00, 0.00, 0.00, 0.00, 0
5, -180747.52, -41216.53, 34005.16, 30911.08, -167963.78, -187500.02, -24374.96, 164250.88, 0.00, 0.00, 0.00, 0.00, 0.00, 0.00, 0.00, 0.00, 0
6, -180750.13, -41220.95, 33985.36, 30938.19, -167962.52, -187500.02, -24390.80, 164237.58, 0.00, 0.00, 0.00, 0.00, 0.00, 0.00, 0.00, 0.00, 0
7, -180752.81, -41218.61, 33974.27, 30925.85, -167959.11, -187500.02, -24399.92, 164228.78, 0.00, 0.00, 0.00, 0.00, 0.00, 0.00, 0.00, 0.00, 0
8, -180753.48, -41190.71, 33986.72, 30903.03, -167959.55, -187500.02, -24388.28, 164243.14, 0.00, 0.00, 0.00, 0.00, 0.00, 0.00, 0.00, 0.00, 0
9, -180754.39, -41164.80, 33996.73, 30911.72, -167957.59, -187500.02, -24378.24, 164255.47, 0.00, 0.00, 0.00, 0.00, 0.00, 0.00, 0.00, 0.00, 0
10, -180755.42, -41166.57, 33980.08, 30927.17, -167958.58, -187500.02, -24392.21, 164243.88, 0.00, 0.00, 0.00, 0.00, 0.00, 0.00, 0.00, 0.00, 0
11, -180757.75, -41168.85, 33964.32, 30943.37, -167956.83, -187500.02, -24404.62, 164231.83, 0.00, 0.00, 0.00, 0.00, 0.00, 0.00, 0.00, 0.00, 0
12, -180759.02, -41143.77, 33973.69, 30904.77, -167956.13, -187500.02, -24393.40, 164243.31, 0.00, 0.00, 0.00, 0.00, 0.00, 0.00, 0.00, 0.00, 0
13, -180757.14, -41115.50, 33985.58, 30912.91, -167957.48, -187500.02, -24380.86, 164259.45, 0.00, 0.00, 0.00, 0.00, 0.00, 0.00, 0.00, 0.00, 0
14, -180759.28, -41112.70, 33972.39, 30924.89, -167956.50, -187500.02, -24390.11, 164253.55, 0.00, 0.00, 0.00, 0.00, 0.00, 0.00, 0.00, 0.00, 0
15, -180762.53, -41116.86, 33952.84, 30941.83, -167954.17, -187500.02, -24404.19, 164241.78, 0.00, 0.00, 0.00, 0.00, 0.00, 0.00, 0.00, 0.00, 0
16, -180766.02, -41097.05, 33958.20, 30914.56, -167953.95, -187500.02, -24398.13, 164251.20, 0.00, 0.00, 0.00, 0.00, 0.00, 0.00, 0.00, 0.00, 0
17, -180765.22, -41066.77, 33973.04, 30913.36, -167955.31, -187500.02, -24385.02, 164269.06, 0.00, 0.00, 0.00, 0.00, 0.00, 0.00, 0.00, 0.00, 0
18, -180765.39, -41058.90, 33964.97, 30918.45, -167959.14, -187500.02, -24390.49, 164265.89, 0.00, 0.00, 0.00, 0.00, 0.00, 0.00, 0.00, 0.00, 0
19, -180767.27, -41065.72, 33943.76, 30953.01, -167954.58, -187500.02, -24406.74, 164248.19, 0.00, 0.00, 0.00, 0.00, 0.00, 0.00, 0.00, 0.00, 0
20, -180771.50, -41050.96, 33944.68, 30928.49, -167950.08, -187500.02, -24404.68, 164249.75, 0.00, 0.00, 0.00, 0.00, 0.00, 0.00, 0.00, 0.00, 0
21, -180770.38, -41019.61, 33960.23, 30914.67, -167949.92, -187500.02, -24389.66, 164268.08, 0.00, 0.00, 0.00, 0.00, 0.00, 0.00, 0.00, 0.00, 0
22, -180770.16, -41006.55, 33956.48, 30919.90, -167953.50, -187500.02, -24389.98, 164271.34, 0.00, 0.00, 0.00, 0.00, 0.00, 0.00, 0.00, 0.00, 0
23, -180773.61, -41014.20, 33933.28, 30945.79, -167953.66, -187500.02, -24408.66, 164255.56, 0.00, 0.00, 0.00, 0.00, 0.00, 0.00, 0.00, 0.00, 0
24, -180775.84, -41003.00, 33929.30, 30927.50, -167951.83, -187500.02, -24410.96, 164253.78, 0.00, 0.00, 0.00, 0.00, 0.00, 0.00, 0.00, 0.00, 0
25, -180775.30, -40971.84, 33944.79, 30915.86, -167950.59, -187500.02, -24394.78, 164271.56, 0.00, 0.00, 0.00, 0.00, 0.00, 0.00, 0.00, 0.00, 0
26, -180774.44, -40953.87, 33947.05, 30920.53, -167953.64, -187500.02, -24389.64, 164279.59, 0.00, 0.00, 0.00, 0.00, 0.00, 0.00, 0.00, 0.00, 0
27, -180777.34, -40960.06, 33924.61, 30951.87, -167952.03, -187500.02, -24406.16, 164264.22, 0.00, 0.00, 0.00, 0.00, 0.00, 0.00, 0.00, 0.00, 0
28, -180780.39, -40953.69, 33915.71, 30942.88, -167950.05, -187500.02, -24413.00, 164258.03, 0.00, 0.00, 0.00, 0.00, 0.00, 0.00, 0.00, 0.00, 0
29, -180778.72, -40924.34, 33929.32, 30917.00, -167949.75, -187500.02, -24400.26, 164273.09, 0.00, 0.00, 0.00, 0.00, 0.00, 0.00, 0.00, 0.00, 0
30, -180777.38, -40901.28, 33936.63, 30922.32, -167950.27, -187500.02, -24392.86, 164283.94, 0.00, 0.00, 0.00, 0.00, 0.00, 0.00, 0.00, 0.00, 0
31, -180780.81, -40904.94, 33917.61, 30937.65, -167949.58, -187500.02, -24406.79, 164272.38, 0.00, 0.00, 0.00, 0.00, 0.00, 0.00, 0.00, 0.00, 0
32, -180782.52, -40905.01, 33904.31, 30932.20, -167945.92, -187500.02, -24417.42, 164263.36, 0.00, 0.00, 0.00, 0.00, 0.00, 0.00, 0.00, 0.00, 0
33, -180780.02, -40878.37, 33915.91, 30917.40, -167944.28, -187500.02, -24405.69, 164275.84, 0.00, 0.00, 0.00, 0.00, 0.00, 0.00, 0.00, 0.00, 0
34, -180774.02, -40851.25, 33926.62, 30922.92, -167947.92, -187500.02, -24392.37, 164289.70, 0.00, 0.00, 0.00, 0.00, 0.00, 0.00, 0.00, 0.00, 0
35, -180774.13, -40851.28, 33910.59, 30935.30, -167947.20, -187500.02, -24402.20, 164280.47, 0.00, 0.00, 0.00, 0.00, 0.00, 0.00, 0.00, 0.00, 0
36, -180776.52, -40850.56, 33892.64, 30949.59, -167943.88, -187500.02, -24416.69, 164269.58, 0.00, 0.00, 0.00, 0.00, 0.00, 0.00, 0.00, 0.00, 0
37, -180781.16, -40679.39, 33901.96, 30912.44, -167944.88, -187500.02, -24409.94, 164279.38, 0.00, 0.00, 0.00, 0.00, 0.00, 0.00, 0.00, 0.00, 0
38, -180787.50, -40454.69, 33925.32, 30924.15, -167947.78, -187500.02, -24395.30, 164296.00, 0.00, 0.00, 0.00, 0.00, 0.00, 0.00, 0.00, 0.00, 0
39, -180787.19, -40439.07, 33927.49, 30939.46, -167948.20, -187500.02, -24403.37, 164291.16, 0.00, 0.00, 0.00, 0.00, 0.00, 0.00, 0.00, 0.00, 0
40, -180793.28, -40447.61, 33918.44, 30979.16, -167943.92, -187500.02, -24421.67, 164276.16, 0.00, 0.00, 0.00, 0.00, 0.00, 0.00, 0.00, 0.00, 0
41, -180793.39, -40431.62, 33935.18, 30925.96, -167939.64, -187500.02, -24415.93, 164282.34, 0.00, 0.00, 0.00, 0.00, 0.00, 0.00, 0.00, 0.00, 0
42, -180792.61, -40401.02, 33964.68, 30927.57, -167942.27, -187500.02, -24399.86, 164303.00, 0.00, 0.00, 0.00, 0.00, 0.00, 0.00, 0.00, 0.00, 0
43, -180793.13, -40392.64, 33971.95, 30932.40, -167943.11, -187500.02, -24403.30, 164303.28, 0.00, 0.00, 0.00, 0.00, 0.00, 0.00, 0.00, 0.00, 0
44, -180799.55, -40404.66, 33961.46, 30953.88, -167938.48, -187500.02, -24420.76, 164285.58, 0.00, 0.00, 0.00, 0.00, 0.00, 0.00, 0.00, 0.00, 0
45, -180801.44, -40394.61, 33972.04, 30928.40, -167938.63, -187500.02, -24420.49, 164285.77, 0.00, 0.00, 0.00, 0.00, 0.00, 0.00, 0.00, 0.00, 0
46, -180800.11, -40363.92, 34002.32, 30925.36, -167939.89, -187500.02, -24403.12, 164303.52, 0.00, 0.00, 0.00, 0.00, 0.00, 0.00, 0.00, 0.00, 0
47, -180798.92, -40349.17, 34015.80, 30932.11, -167942.08, -187500.02, -24401.64, 164310.39, 0.00, 0.00, 0.00, 0.00, 0.00, 0.00, 0.00, 0.00, 0
48, -180802.22, -40359.79, 34004.33, 30966.96, -167940.97, -187500.02, -24419.59, 164296.02, 0.00, 0.00, 0.00, 0.00, 0.00, 0.00, 0.00, 0.00, 0
49, -180805.84, -40354.33, 34009.25, 30951.38, -167938.03, -187500.02, -24423.50, 164291.66, 0.00, 0.00, 0.00, 0.00, 0.00, 0.00, 0.00, 0.00, 0
50, -180805.69, -40324.38, 34039.43, 30926.70, -167937.70, -187500.02, -24408.24, 164309.55, 0.00, 0.00, 0.00, 0.00, 0.00, 0.00, 0.00, 0.00, 0
51, -180804.63, -40304.15, 34058.67, 30935.62, -167938.53, -187500.02, -24401.22, 164323.14, 0.00, 0.00, 0.00, 0.00, 0.00, 0.00, 0.00, 0.00, 0
52, -180808.89, -40314.21, 34049.71, 30955.67, -167936.08, -187500.02, -24417.80, 164310.81, 0.00, 0.00, 0.00, 0.00, 0.00, 0.00, 0.00, 0.00, 0
53, -180811.77, -40315.30, 34049.93, 30962.78, -167932.20, -187500.02, -24426.46, 164303.05, 0.00, 0.00, 0.00, 0.00, 0.00, 0.00, 0.00, 0.00, 0
54, -180813.05, -40413.54, 34075.01, 30931.37, -167931.89, -187500.02, -24413.51, 164318.63, 0.00, 0.00, 0.00, 0.00, 0.00, 0.00, 0.00, 0.00, 0
55, -180812.70, -40601.27, 34089.94, 30936.82, -167932.97, -187500.02, -24403.34, 164331.86, 0.00, 0.00, 0.00, 0.00, 0.00, 0.00, 0.00, 0.00, 0
56, -180815.48, -40625.05, 34070.56, 30947.87, -167932.70, -187500.02, -24416.51, 164319.25, 0.00, 0.00, 0.00, 0.00, 0.00, 0.00, 0.00, 0.00, 0
57, -180821.27, -40628.27, 34052.93, 30967.11, -167933.30, -187500.02, -24427.91, 164308.20, 0.00, 0.00, 0.00, 0.00, 0.00, 0.00, 0.00, 0.00, 0
58, -180819.95, -40602.88, 34063.25, 30927.84, -167934.70, -187500.02, -24415.64, 164321.33, 0.00, 0.00, 0.00, 0.00, 0.00, 0.00, 0.00, 0.00, 0
59, -180817.92, -40572.44, 34077.18, 30937.29, -167933.98, -187500.02, -24402.09, 164338.45, 0.00, 0.00, 0.00, 0.00, 0.00, 0.00, 0.00, 0.00, 0
60, -180818.75, -40570.74, 34062.25, 30937.00, -167931.17, -187500.02, -24412.33, 164329.75, 0.00, 0.00, 0.00, 0.00, 0.00, 0.00, 0.00, 0.00, 0
61, -180822.56, -40577.38, 34040.50, 30957.81, -167924.36, -187500.02, -24428.49, 164314.44, 0.00, 0.00, 0.00, 0.00, 0.00, 0.00, 0.00, 0.00, 0
62, -180825.56, -40555.92, 34046.31, 30937.85, -167924.31, -187500.02, -24420.58, 164323.34, 0.00, 0.00, 0.00, 0.00, 0.00, 0.00, 0.00, 0.00, 0
63, -180823.39, -40523.55, 34063.01, 30937.27, -167926.02, -187500.02, -24403.72, 164341.48, 0.00, 0.00, 0.00, 0.00, 0.00, 0.00, 0.00, 0.00, 0
64, -180826.66, -40517.32, 34054.40, 30944.96, -167927.58, -187500.02, -24409.42, 164337.75, 0.00, 0.00, 0.00, 0.00, 0.00, 0.00, 0.00, 0.00, 0
65, -180831.11, -40526.15, 34030.38, 30983.07, -167928.81, -187500.02, -24426.59, 164319.88, 0.00, 0.00, 0.00, 0.00, 0.00, 0.00, 0.00, 0.00, 0
66, -180831.19, -40509.52, 34031.09, 30940.76, -167925.61, -187500.02, -24423.21, 164323.25, 0.00, 0.00, 0.00, 0.00, 0.00, 0.00, 0.00, 0.00, 0
67, -180831.31, -40476.35, 34049.24, 30938.81, -167926.50, -187500.02, -24405.78, 164343.94, 0.00, 0.00, 0.00, 0.00, 0.00, 0.00, 0.00, 0.00, 0
68, -180832.56, -40463.65, 34046.46, 30941.83, -167924.89, -187500.02, -24405.87, 164348.27, 0.00, 0.00, 0.00, 0.00, 0.00, 0.00, 0.00, 0.00, 0
69, -180834.59, -40473.15, 34021.84, 30955.02, -167922.06, -187500.02, -24424.53, 164332.33, 0.00, 0.00, 0.00, 0.00, 0.00, 0.00, 0.00, 0.00, 0
70, -180834.14, -40462.82, 34017.27, 30939.19, -167921.44, -187500.02, -24426.01, 164330.88, 0.00, 0.00, 0.00, 0.00, 0.00, 0.00, 0.00, 0.00, 0
71, -180834.69, -40429.52, 34034.51, 30935.57, -167923.91, -187500.02, -24410.09, 164349.88, 0.00, 0.00, 0.00, 0.00, 0.00, 0.00, 0.00, 0.00, 0
72, -180834.91, -40410.95, 34036.83, 30942.48, -167927.58, -187500.02, -24406.83, 164357.11, 0.00, 0.00, 0.00, 0.00, 0.00, 0.00, 0.00, 0.00, 0
73, -180837.86, -40419.69, 34013.48, 30970.06, -167924.31, -187500.02, -24424.55, 164340.72, 0.00, 0.00, 0.00, 0.00, 0.00, 0.00, 0.00, 0.00, 0
74, -180839.91, -40414.19, 34004.22, 30955.18, -167919.98, -187500.02, -24428.91, 164336.48, 0.00, 0.00, 0.00, 0.00, 0.00, 0.00, 0.00, 0.00, 0
75, -180840.30, -40382.56, 34019.87, 30937.56, -167918.39, -187500.02, -24384.84, 164354.25, 0.00, 0.00, 0.00, 0.00, 0.00, 0.00, 0.00, 0.00, 0
76, -180840.73, -40358.91, 34026.35, 30945.23, -167920.77, -187500.02, -24269.50, 164366.41, 0.00, 0.00, 0.00, 0.00, 0.00, 0.00, 0.00, 0.00, 0
77, -180843.02, -40364.01, 34004.54, 30972.34, -167924.05, -187500.02, -24230.43, 164352.61, 0.00, 0.00, 0.00, 0.00, 0.00, 0.00, 0.00, 0.00, 0
78, -180845.97, -40364.39, 33989.58, 30972.05, -167922.75, -187500.02, -24203.63, 164342.17, 0.00, 0.00, 0.00, 0.00, 0.00, 0.00, 0.00, 0.00, 0
79, -180846.59, -40337.05, 34002.37, 30935.69, -167924.16, -187500.02, -24154.26, 164356.27, 0.00, 0.00, 0.00, 0.00, 0.00, 0.00, 0.00, 0.00, 0
80, -180846.19, -40309.22, 34014.39, 30945.34, -167926.61, -187500.02, -24106.20, 164371.92, 0.00, 0.00, 0.00, 0.00, 0.00, 0.00, 0.00, 0.00, 0
81, -180849.56, -40311.32, 33996.64, 30958.42, -167920.94, -187500.02, -24086.44, 164363.08, 0.00, 0.00, 0.00, 0.00, 0.00, 0.00, 0.00, 0.00, 0
82, -180850.86, -40315.26, 33977.42, 30980.32, -167922.39, -187500.02, -24070.59, 164350.78, 0.00, 0.00, 0.00, 0.00, 0.00, 0.00, 0.00, 0.00, 0
83, -180850.55, -40291.05, 33986.36, 30944.96, -167922.22, -187500.02, -24034.03, 164362.55, 0.00, 0.00, 0.00, 0.00, 0.00, 0.00, 0.00, 0.00, 0
84, -180849.64, -40259.38, 34000.31, 30946.08, -167920.56, -187500.02, -23993.08, 164380.58, 0.00, 0.00, 0.00, 0.00, 0.00, 0.00, 0.00, 0.00, 0
85, -180855.27, -40255.47, 33987.59, 30960.23, -167919.03, -187500.02, -23986.24, 164374.83, 0.00, 0.00, 0.00, 0.00, 0.00, 0.00, 0.00, 0.00, 0
86, -180859.45, -40263.16, 33965.24, 30987.47, -167918.69, -187500.02, -24071.53, 164359.61, 0.00, 0.00, 0.00, 0.00, 0.00, 0.00, 0.00, 0.00, 0
87, -180859.27, -40243.75, 33970.02, 30944.22, -167918.91, -187500.02, -24111.99, 164365.80, 0.00, 0.00, 0.00, 0.00, 0.00, 0.00, 0.00, 0.00, 0
88, -180856.88, -40211.28, 33987.23, 30947.53, -167919.89, -187500.02, -24108.17, 164384.69, 0.00, 0.00, 0.00, 0.00, 0.00, 0.00, 0.00, 0.00, 0
89, -180857.45, -40201.89, 33980.13, 30951.76, -167922.81, -187500.02, -24123.16, 164384.73, 0.00, 0.00, 0.00, 0.00, 0.00, 0.00, 0.00, 0.00, 0
90, -180862.95, -40210.81, 33956.39, 30991.05, -167920.38, -187500.02, -24151.19, 164368.83, 0.00, 0.00, 0.00, 0.00, 0.00, 0.00, 0.00, 0.00, 0
91, -180864.75, -40196.79, 33955.63, 30957.03, -167915.75, -187500.02, -24159.33, 164372.39, 0.00, 0.00, 0.00, 0.00, 0.00, 0.00, 0.00, 0.00, 0
92, -180859.58, -40163.65, 33972.39, 30945.83, -167917.45, -187500.02, -24151.64, 164393.03, 0.00, 0.00, 0.00, 0.00, 0.00, 0.00, 0.00, 0.00, 0
93, -180858.06, -40148.85, 33971.19, 30953.03, -167917.41, -187500.02, -24159.26, 164398.02, 0.00, 0.00, 0.00, 0.00, 0.00, 0.00, 0.00, 0.00, 0
94, -180862.91, -40157.46, 33946.78, 30980.46, -167917.16, -187500.02, -24185.44, 164381.50, 0.00, 0.00, 0.00, 0.00, 0.00, 0.00, 0.00, 0.00, 0
95, -180863.20, -40149.34, 33939.96, 30958.86, -167914.77, -187500.02, -24193.39, 164378.25, 0.00, 0.00, 0.00, 0.00, 0.00, 0.00, 0.00, 0.00, 0
96, -180857.77, -40096.77, 33956.19, 30945.61, -167912.31, -187500.02, -24181.19, 164395.69, 0.00, 0.00, 0.00, 0.00, 0.00, 0.00, 0.00, 0.00, 0
97, -180861.64, -39859.46, 33965.11, 30951.35, -167915.02, -187500.02, -24179.60, 164404.47, 0.00, 0.00, 0.00, 0.00, 0.00, 0.00, 0.00, 0.00, 0
98, -180866.58, -39742.16, 33954.38, 30964.43, -167911.73, -187500.02, -24201.69, 164388.83, 0.00, 0.00, 0.00, 0.00, 0.00, 0.00, 0.00, 0.00, 0
99, -180871.03, -39737.51, 33956.72, 30958.64, -167910.03, -187500.02, -24212.95, 164381.78, 0.00, 0.00, 0.00, 0.00, 0.00, 0.00, 0.00, 0.00, 0
100, -180873.19, -39711.43, 33982.74, 30940.18, -167910.91, -187500.02, -24203.68, 164396.63, 0.00, 0.00, 0.00, 0.00, 0.00, 0.00, 0.00, 0.00, 0
101, -180872.75, -39690.86, 34003.48, 30952.49, -167912.16, -187500.02, -24199.92, 164407.95, 0.00, 0.00, 0.00, 0.00, 0.00, 0.00, 0.00, 0.00, 0
102, -180876.08, -39696.41, 33998.30, 30991.41, -167915.48, -187500.02, -24217.58, 164396.61, 0.00, 0.00, 0.00, 0.00, 0.00, 0.00, 0.00, 0.00, 0
103, -180879.83, -39697.77, 33997.07, 30989.69, -167912.44, -187500.02, -24231.12, 164387.55, 0.00, 0.00, 0.00, 0.00, 0.00, 0.00, 0.00, 0.00, 0
104, -180879.00, -39672.24, 34021.77, 30941.72, -167909.55, -187500.02, -24221.71, 164400.56, 0.00, 0.00, 0.00, 0.00, 0.00, 0.00, 0.00, 0.00, 0
105, -180878.98, -39644.44, 34046.58, 30954.51, -167909.73, -187500.02, -24212.46, 164415.36, 0.00, 0.00, 0.00, 0.00, 0.00, 0.00, 0.00, 0.00, 0
106, -180881.23, -39642.36, 34044.07, 30963.27, -167909.20, -187500.02, -24228.98, 164404.19, 0.00, 0.00, 0.00, 0.00, 0.00, 0.00, 0.00, 0.00, 0
107, -180884.33, -39646.94, 34037.88, 30980.32, -167906.98, -187500.02, -24248.09, 164388.72, 0.00, 0.00, 0.00, 0.00, 0.00, 0.00, 0.00, 0.00, 0
108, -180884.30, -39625.11, 34057.55, 30946.64, -167906.91, -187500.02, -24243.62, 164397.09, 0.00, 0.00, 0.00, 0.00, 0.00, 0.00, 0.00, 0.00, 0
109, -180883.70, -39596.56, 34084.44, 30955.96, -167909.36, -187500.02, -24233.18, 164416.09, 0.00, 0.00, 0.00, 0.00, 0.00, 0.00, 0.00, 0.00, 0
110, -180885.20, -39594.32, 34087.59, 30965.61, -167908.53, -187500.02, -24242.72, 164412.94, 0.00, 0.00, 0.00, 0.00, 0.00, 0.00, 0.00, 0.00, 0
111, -180887.05, -39601.79, 34079.99, 30989.35, -167904.22, -187500.02, -24260.94, 164396.88, 0.00, 0.00, 0.00, 0.00, 0.00, 0.00, 0.00, 0.00, 0
112, -180887.23, -39584.20, 34095.15, 30956.38, -167902.28, -187500.02, -24259.55, 164400.41, 0.00, 0.00, 0.00, 0.00, 0.00, 0.00, 0.00, 0.00, 0
113, -180886.05, -39588.34, 34123.40, 30955.15, -167902.86, -187500.02, -24246.81, 164418.67, 0.00, 0.00, 0.00, 0.00, 0.00, 0.00, 0.00, 0.00, 0
114, -180887.55, -39811.34, 34126.26, 30961.17, -167904.00, -187500.02, -24250.90, 164421.23, 0.00, 0.00, 0.00, 0.00, 0.00, 0.00, 0.00, 0.00, 0
115, -180894.47, -39914.38, 34104.16, 30996.57, -167901.16, -187500.02, -24270.87, 164404.55, 0.00, 0.00, 0.00, 0.00, 0.00, 0.00, 0.00, 0.00, 0
116, -180897.88, -39902.38, 34102.10, 30975.47, -167899.13, -187500.02, -24274.26, 164403.31, 0.00, 0.00, 0.00, 0.00, 0.00, 0.00, 0.00, 0.00, 0
117, -180897.89, -39870.68, 34118.30, 30959.29, -167900.42, -187500.02, -24261.59, 164420.03, 0.00, 0.00, 0.00, 0.00, 0.00, 0.00, 0.00, 0.00, 0
118, -180898.66, -39854.05, 34118.55, 30963.69, -167901.63, -187500.02, -24262.84, 164426.42, 0.00, 0.00, 0.00, 0.00, 0.00, 0.00, 0.00, 0.00, 0
119, -180902.50, -39861.52, 34095.08, 30994.40, -167900.75, -187500.02, -24281.73, 164412.70, 0.00, 0.00, 0.00, 0.00, 0.00, 0.00, 0.00, 0.00, 0
120, -180906.61, -39853.70, 34087.44, 30977.13, -167900.48, -187500.02, -24287.16, 164408.66, 0.00, 0.00, 0.00, 0.00, 0.00, 0.00, 0.00, 0.00, 0
121, -180905.77, -39823.25, 34102.37, 30957.86, -167902.44, -187500.02, -24275.09, 164424.75, 0.00, 0.00, 0.00, 0.00, 0.00, 0.00, 0.00, 0.00, 0
122, -180902.30, -39801.50, 34108.05, 30965.12, -167903.34, -187500.02, -24269.81, 164434.42, 0.00, 0.00, 0.00, 0.00, 0.00, 0.00, 0.00, 0.00, 0
123, -180904.84, -39806.69, 34087.79, 30972.48, -167902.31, -187500.02, -24285.55, 164422.64, 0.00, 0.00, 0.00, 0.00, 0.00, 0.00, 0.00, 0.00, 0
124, -180909.20, -39804.30, 34075.03, 30987.12, -167900.05, -187500.02, -24295.45, 164415.61, 0.00, 0.00, 0.00, 0.00, 0.00, 0.00, 0.00, 0.00, 0
125, -180910.55, -39777.14, 34087.71, 30959.58, -167899.75, -187500.02, -24283.34, 164428.69, 0.00, 0.00, 0.00, 0.00, 0.00, 0.00, 0.00, 0.00, 0
126, -180908.78, -39751.70, 34097.59, 30966.24, -167900.98, -187500.02, -24274.91, 164441.52, 0.00, 0.00, 0.00, 0.00, 0.00, 0.00, 0.00, 0.00, 0
127, -180910.23, -39753.18, 34079.43, 30983.76, -167900.75, -187500.02, -24289.10, 164430.84, 0.00, 0.00, 0.00, 0.00, 0.00, 0.00, 0.00, 0.00, 0
128, -180913.45, -39755.26, 34062.31, 30998.85, -167898.56, -187500.02, -24302.49, 164420.88, 0.00, 0.00, 0.00, 0.00, 0.00, 0.00, 0.00, 0.00, 0
129, -180914.09, -39730.52, 34071.90, 30967.22, -167898.55, -187500.02, -24294.87, 164434.11, 0.00, 0.00, 0.00, 0.00, 0.00, 0.00, 0.00, 0.00, 0
130, -180914.61, -39701.30, 34084.71, 30968.47, -167896.38, -187500.02, -24283.45, 164451.08, 0.00, 0.00, 0.00, 0.00, 0.00, 0.00, 0.00, 0.00, 0
131, -180916.27, -39698.95, 34071.52, 30978.71, -167895.95, -187500.02, -24293.60, 164443.64, 0.00, 0.00, 0.00, 0.00, 0.00, 0.00, 0.00, 0.00, 0
132, -180920.16, -39704.30, 34050.67, 30995.23, -167898.20, -187500.02, -24310.14, 164427.78, 0.00, 0.00, 0.00, 0.00, 0.00, 0.00, 0.00, 0.00, 0
133, -180918.20, -39684.22, 34054.74, 30957.48, -167897.05, -187500.02, -24305.33, 164434.83, 0.00, 0.00, 0.00, 0.00, 0.00, 0.00, 0.00, 0.00, 0
134, -180918.45, -39653.04, 34070.09, 30967.67, -167896.02, -187500.02, -24290.69, 164453.72, 0.00, 0.00, 0.00, 0.00, 0.00, 0.00, 0.00, 0.00, 0
135, -180920.75, -39645.09, 34062.14, 30980.79, -167894.61, -187500.02, -24295.63, 164451.84, 0.00, 0.00, 0.00, 0.00, 0.00, 0.00, 0.00, 0.00, 0
136, -180925.30, -39652.17, 34040.16, 31012.06, -167893.83, -187500.02, -24313.78, 164433.59, 0.00, 0.00, 0.00, 0.00, 0.00, 0.00, 0.00, 0.00, 0
137, -180925.58, -39637.00, 34040.75, 30971.76, -167892.42, -187500.02, -24312.75, 164436.48, 0.00, 0.00, 0.00, 0.00, 0.00, 0.00, 0.00, 0.00, 0
138, -180923.42, -39605.21, 34056.52, 30967.63, -167895.03, -187500.02, -24298.60, 164455.19, 0.00, 0.00, 0.00, 0.00, 0.00, 0.00, 0.00, 0.00, 0
139, -180923.19, -39592.47, 34053.24, 30974.55, -167895.88, -187500.02, -24300.21, 164458.25, 0.00, 0.00, 0.00, 0.00, 0.00, 0.00, 0.00, 0.00, 0
140, -180926.34, -39599.76, 34030.69, 31002.23, -167893.47, -187500.02, -24319.39, 164442.52, 0.00, 0.00, 0.00, 0.00, 0.00, 0.00, 0.00, 0.00, 0
141, -180928.89, -39589.21, 34025.70, 30978.69, -167890.03, -187500.02, -24322.97, 164439.97, 0.00, 0.00, 0.00, 0.00, 0.00, 0.00, 0.00, 0.00, 0
142, -180929.30, -39558.54, 34040.21, 30965.66, -167888.95, -187500.02, -24308.79, 164455.95, 0.00, 0.00, 0.00, 0.00, 0.00, 0.00, 0.00, 0.00, 0
143, -180931.75, -39539.54, 34042.78, 30975.25, -167890.00, -187500.02, -24305.69, 164462.47, 0.00, 0.00, 0.00, 0.00, 0.00, 0.00, 0.00, 0.00, 0
144, -180936.20, -39546.40, 34021.72, 31009.96, -167889.67, -187500.02, -24320.42, 164446.72, 0.00, 0.00, 0.00, 0.00, 0.00, 0.00, 0.00, 0.00, 0
145, -180937.23, -39542.09, 34011.71, 30989.17, -167885.20, -187500.02, -24325.89, 164441.47, 0.00, 0.00, 0.00, 0.00, 0.00, 0.00, 0.00, 0.00, 0
146, -180935.38, -39512.99, 34025.05, 30974.11, -167886.05, -187500.02, -24312.64, 164456.22, 0.00, 0.00, 0.00, 0.00, 0.00, 0.00, 0.00, 0.00, 0
147, -180934.27, -39489.25, 34032.50, 30977.19, -167889.67, -187500.02, -24306.27, 164465.53, 0.00, 0.00, 0.00, 0.00, 0.00, 0.00, 0.00, 0.00, 0
148, -180938.03, -39492.91, 34012.63, 30989.66, -167887.72, -187500.02, -24322.97, 164449.78, 0.00, 0.00, 0.00, 0.00, 0.00, 0.00, 0.00, 0.00, 0
149, -180941.97, -39492.13, 33998.54, 30997.02, -167884.14, -187500.02, -24334.92, 164439.16, 0.00, 0.00, 0.00, 0.00, 0.00, 0.00, 0.00, 0.00, 0
150, -180938.80, -39465.00, 34009.36, 30964.50, -167883.09, -187500.02, -24323.23, 164450.73, 0.00, 0.00, 0.00, 0.00, 0.00, 0.00, 0.00, 0.00, 0
151, -180936.73, -39438.45, 34020.38, 30976.66, -167881.63, -187500.02, -24312.26, 164464.33, 0.00, 0.00, 0.00, 0.00, 0.00, 0.00, 0.00, 0.00, 0
152, -180940.06, -39439.12, 34004.69, 30991.34, -167878.31, -187500.02, -24325.47, 164454.03, 0.00, 0.00, 0.00, 0.00, 0.00, 0.00, 0.00, 0.00, 0
153, -180942.86, -39442.13, 33986.68, 31027.42, -167878.97, -187500.02, -24338.84, 164440.61, 0.00, 0.00, 0.00, 0.00, 0.00, 0.00, 0.00, 0.00, 0
154, -180940.20, -39418.82, 33993.96, 30981.35, -167879.91, -187500.02, -24329.36, 164450.92, 0.00, 0.00, 0.00, 0.00, 0.00, 0.00, 0.00, 0.00, 0
155, -180934.06, -39388.45, 34007.42, 30979.61, -167881.42, -187500.02, -24316.69, 164467.13, 0.00, 0.00, 0.00, 0.00, 0.00, 0.00, 0.00, 0.00, 0
156, -180933.59, -39383.64, 33995.97, 30990.22, -167882.20, -187500.02, -24327.46, 164461.63, 0.00, 0.00, 0.00, 0.00, 0.00, 0.00, 0.00, 0.00, 0
157, -180939.63, -39373.98, 33975.28, 31018.59, -167880.97, -187500.02, -24344.65, 164447.39, 0.00, 0.00, 0.00, 0.00, 0.00, 0.00, 0.00, 0.00, 0
158, -180948.14, -39149.26, 33982.68, 30971.09, -167879.59, -187500.02, -24340.31, 164455.33, 0.00, 0.00, 0.00, 0.00, 0.00, 0.00, 0.00, 0.00, 0
159, -180951.20, -38977.55, 34009.95, 30978.64, -167881.08, -187500.02, -24325.87, 164474.95, 0.00, 0.00, 0.00, 0.00, 0.00, 0.00, 0.00, 0.00, 0
160, -180950.06, -38966.04, 34017.36, 30982.62, -167883.97, -187500.02, -24330.14, 164475.00, 0.00, 0.00, 0.00, 0.00, 0.00, 0.00, 0.00, 0.00, 0
161, -180953.48, -38973.98, 34007.51, 31012.13, -167884.13, -187500.02, -24348.36, 164458.86, 0.00, 0.00, 0.00, 0.00, 0.00, 0.00, 0.00, 0.00, 0
162, -180957.06, -38959.40, 34019.09, 30974.55, -167883.28, -187500.02, -24348.63, 164459.97, 0.00, 0.00, 0.00, 0.00, 0.00, 0.00, 0.00, 0.00, 0
163, -180957.69, -38925.92, 34048.68, 30975.90, -167879.34, -187500.02, -24333.20, 164478.61, 0.00, 0.00, 0.00, 0.00, 0.00, 0.00, 0.00, 0.00, 0
164, -180958.05, -38910.81, 34061.26, 30983.00, -167878.00, -187500.02, -24330.59, 164483.53, 0.00, 0.00, 0.00, 0.00, 0.00, 0.00, 0.00, 0.00, 0
165, -180959.72, -38920.29, 34049.89, 31020.38, -167875.94, -187500.02, -24349.70, 164466.23, 0.00, 0.00, 0.00, 0.00, 0.00, 0.00, 0.00, 0.00, 0
166, -180962.44, -38912.80, 34055.54, 31000.10, -167875.72, -187500.02, -24355.89, 164462.97, 0.00, 0.00, 0.00, 0.00, 0.00, 0.00, 0.00, 0.00, 0
167, -180963.27, -38881.21, 34085.11, 30976.63, -167878.19, -187500.02, -24341.67, 164481.05, 0.00, 0.00, 0.00, 0.00, 0.00, 0.00, 0.00, 0.00, 0
168, -180961.44, -38859.94, 34104.45, 30984.99, -167877.33, -187500.02, -24335.35, 164490.92, 0.00, 0.00, 0.00, 0.00, 0.00, 0.00, 0.00, 0.00, 0
169, -180963.94, -38867.60, 34095.21, 31001.40, -167875.75, -187500.02, -24351.31, 164475.19, 0.00, 0.00, 0.00, 0.00, 0.00, 0.00, 0.00, 0.00, 0
170, -180969.08, -38867.69, 34096.11, 31012.15, -167874.09, -187500.02, -24360.36, 164467.23, 0.00, 0.00, 0.00, 0.00, 0.00, 0.00, 0.00, 0.00, 0
171, -180968.56, -38838.68, 34123.76, 30976.61, -167872.48, -187500.02, -24347.40, 164484.78, 0.00, 0.00, 0.00, 0.00, 0.00, 0.00, 0.00, 0.00, 0
172, -180968.28, -38811.99, 34147.30, 30987.52, -167875.25, -187500.02, -24336.94, 164501.22, 0.00, 0.00, 0.00, 0.00, 0.00, 0.00, 0.00, 0.00, 0
173, -180971.56, -38816.51, 34141.64, 31016.69, -167876.61, -187500.02, -24351.78, 164490.14, 0.00, 0.00, 0.00, 0.00, 0.00, 0.00, 0.00, 0.00, 0
174, -180972.56, -38818.81, 34137.30, 31005.87, -167875.08, -187500.02, -24363.94, 164478.86, 0.00, 0.00, 0.00, 0.00, 0.00, 0.00, 0.00, 0.00, 0
175, -180970.36, -38800.32, 34161.15, 30970.89, -167874.09, -187500.02, -24352.92, 164490.13, 0.00, 0.00, 0.00, 0.00, 0.00, 0.00, 0.00, 0.00, 0
176, -180970.25, -38948.83, 34185.65, 30986.96, -167870.63, -187500.02, -24339.28, 164505.84, 0.00, 0.00, 0.00, 0.00, 0.00, 0.00, 0.00, 0.00, 0
177, -180973.70, -39117.09, 34173.04, 30997.55, -167868.02, -187500.02, -24350.50, 164497.13, 0.00, 0.00, 0.00, 0.00, 0.00, 0.00, 0.00, 0.00, 0
178, -180979.63, -39130.35, 34151.36, 31021.18, -167866.64, -187500.02, -24366.53, 164481.92, 0.00, 0.00, 0.00, 0.00, 0.00, 0.00, 0.00, 0.00, 0
179, -180980.34, -39109.16, 34157.15, 30977.53, -167868.38, -187500.02, -24359.36, 164490.69, 0.00, 0.00, 0.00, 0.00, 0.00, 0.00, 0.00, 0.00, 0
180, -180978.84, -39076.01, 34174.14, 30986.15, -167870.80, -187500.02, -24344.78, 164510.28, 0.00, 0.00, 0.00, 0.00, 0.00, 0.00, 0.00, 0.00, 0
181, -180981.67, -39068.55, 34165.42, 30993.64, -167870.33, -187500.02, -24351.00, 164508.92, 0.00, 0.00, 0.00, 0.00, 0.00, 0.00, 0.00, 0.00, 0
182, -180984.77, -39078.02, 34141.93, 31028.73, -167867.67, -187500.02, -24368.09, 164493.34, 0.00, 0.00, 0.00, 0.00, 0.00, 0.00, 0.00, 0.00, 0
183, -180985.53, -39061.71, 34143.20, 30991.56, -167865.03, -187500.02, -24364.56, 164496.27, 0.00, 0.00, 0.00, 0.00, 0.00, 0.00, 0.00, 0.00, 0
184, -180983.41, -39027.87, 34161.42, 30987.72, -167866.16, -187500.02, -24348.60, 164514.20, 0.00, 0.00, 0.00, 0.00, 0.00, 0.00, 0.00, 0.00, 0
185, -180984.80, -39015.24, 34158.09, 30993.40, -167868.33, -187500.02, -24348.92, 164513.89, 0.00, 0.00, 0.00, 0.00, 0.00, 0.00, 0.00, 0.00, 0
186, -180989.84, -39025.23, 34133.17, 31023.51, -167867.72, -187500.02, -24367.58, 164495.06, 0.00, 0.00, 0.00, 0.00, 0.00, 0.00, 0.00, 0.00, 0
187, -180993.28, -39014.36, 34128.70, 31003.28, -167865.94, -187500.02, -24371.16, 164494.42, 0.00, 0.00, 0.00, 0.00, 0.00, 0.00, 0.00, 0.00, 0
188, -180988.75, -38981.44, 34146.42, 30987.18, -167866.33, -187500.02, -24355.62, 164514.72, 0.00, 0.00, 0.00, 0.00, 0.00, 0.00, 0.00, 0.00, 0
189, -180989.98, -38962.80, 34148.93, 30991.97, -167866.77, -187500.02, -24352.22, 164523.50, 0.00, 0.00, 0.00, 0.00, 0.00, 0.00, 0.00, 0.00, 0
190, -180994.56, -38971.20, 34125.28, 31018.48, -167864.95, -187500.02, -24370.26, 164508.03, 0.00, 0.00, 0.00, 0.00, 0.00, 0.00, 0.00, 0.00, 0
191, -180997.25, -38966.38, 34116.32, 31007.48, -167863.55, -187500.02, -24376.19, 164503.58, 0.00, 0.00, 0.00, 0.00, 0.00, 0.00, 0.00, 0.00, 0
192, -180997.89, -38934.70, 34132.18, 30983.74, -167864.75, -187500.02, -24361.01, 164523.14, 0.00, 0.00, 0.00, 0.00, 0.00, 0.00, 0.00, 0.00, 0
193, -180995.77, -38910.30, 34139.72, 30994.72, -167866.92, -187500.02, -24354.15, 164535.80, 0.00, 0.00, 0.00, 0.00, 0.00, 0.00, 0.00, 0.00, 0
194, -180999.08, -38916.89, 34117.50, 31007.52, -167863.42, -187500.02, -24370.71, 164521.59, 0.00, 0.00, 0.00, 0.00, 0.00, 0.00, 0.00, 0.00, 0
195, -181002.39, -38917.20, 34103.46, 31019.41, -167862.78, -187500.02, -24379.16, 164511.06, 0.00, 0.00, 0.00, 0.00, 0.00, 0.00, 0.00, 0.00, 0
196, -181003.02, -38888.68, 34116.47, 30987.07, -167860.19, -187500.02, -24367.42, 164525.06, 0.00, 0.00, 0.00, 0.00, 0.00, 0.00, 0.00, 0.00, 0
197, -181001.77, -38859.98, 34127.89, 30995.81, -167858.06, -187500.02, -24356.18, 164539.30, 0.00, 0.00, 0.00, 0.00, 0.00, 0.00, 0.00, 0.00, 0
198, -181003.22, -38862.15, 34109.32, 31009.22, -167859.14, -187500.02, -24369.75, 164528.69, 0.00, 0.00, 0.00, 0.00, 0.00, 0.00, 0.00, 0.00, 0
199, -181009.14, -38866.02, 34089.89, 31034.88, -167857.59, -187500.02, -24384.79, 164515.03, 0.00, 0.00, 0.00, 0.00, 0.00, 0.00, 0.00, 0.00, 0
200, -181010.09, -38841.43, 34099.62, 30990.51, -167857.81, -187500.02, -24375.49, 164525.13, 0.00, 0.00, 0.00, 0.00, 0.00, 0.00, 0.00, 0.00, 0
201, -181007.19, -38809.09, 34114.57, 30997.71, -167859.72, -187500.02, -24360.21, 164542.81, 0.00, 0.00, 0.00, 0.00, 0.00, 0.00, 0.00, 0.00, 0
202, -181009.14, -38806.29, 34101.92, 31000.93, -167859.61, -187500.02, -24368.23, 164538.67, 0.00, 0.00, 0.00, 0.00, 0.00, 0.00, 0.00, 0.00, 0
203, -181012.00, -38814.27, 34079.95, 31017.36, -167859.14, -187500.02, -24385.55, 164524.34, 0.00, 0.00, 0.00, 0.00, 0.00, 0.00, 0.00, 0.00, 0
204, -181011.17, -38795.18, 34083.97, 30981.08, -167857.33, -187500.02, -24379.79, 164530.38, 0.00, 0.00, 0.00, 0.00, 0.00, 0.00, 0.00, 0.00, 0
205, -181011.69, -38760.98, 34101.23, 30995.14, -167854.98, -187500.02, -24364.50, 164548.38, 0.00, 0.00, 0.00, 0.00, 0.00, 0.00, 0.00, 0.00, 0
206, -181012.88, -38751.42, 34094.25, 31005.94, -167856.98, -187500.02, -24370.31, 164548.31, 0.00, 0.00, 0.00, 0.00, 0.00, 0.00, 0.00, 0.00, 0
207, -181017.39, -38760.94, 34070.23, 31046.55, -167857.28, -187500.02, -24389.57, 164531.61, 0.00, 0.00, 0.00, 0.00, 0.00, 0.00, 0.00, 0.00, 0
208, -181018.38, -38747.33, 34069.78, 30996.15, -167853.38, -187500.02, -24388.48, 164535.86, 0.00, 0.00, 0.00, 0.00, 0.00, 0.00, 0.00, 0.00, 0
209, -181017.83, -38713.31, 34087.37, 30995.07, -167852.59, -187500.02, -24372.27, 164556.86, 0.00, 0.00, 0.00, 0.00, 0.00, 0.00, 0.00, 0.00, 0
210, -181018.08, -38698.20, 34086.54, 31004.86, -167851.81, -187500.02, -24371.67, 164562.17, 0.00, 0.00, 0.00, 0.00, 0.00, 0.00, 0.00, 0.00, 0
211, -181022.23, -38707.97, 34061.78, 31036.38, -167850.38, -187500.02, -24390.31, 164545.89, 0.00, 0.00, 0.00, 0.00, 0.00, 0.00, 0.00, 0.00, 0
212, -181023.55, -38699.38, 34055.21, 31000.77, -167846.22, -187500.02, -24393.44, 164544.19, 0.00, 0.00, 0.00, 0.00, 0.00, 0.00, 0.00, 0.00, 0
213, -181023.20, -38666.91, 34072.13, 30993.40, -167849.95, -187500.02, -24377.13, 164563.53, 0.00, 0.00, 0.00, 0.00, 0.00, 0.00, 0.00, 0.00, 0
214, -181021.91, -38645.11, 34076.44, 31004.60, -167854.20, -187500.02, -24374.46, 164573.56, 0.00, 0.00, 0.00, 0.00, 0.00, 0.00, 0.00, 0.00, 0
215, -181024.63, -38653.12, 34053.30, 31030.90, -167851.94, -187500.02, -24392.88, 164559.11, 0.00, 0.00, 0.00, 0.00, 0.00, 0.00, 0.00, 0.00, 0
216, -181023.69, -38649.88, 34042.11, 31009.71, -167850.00, -187500.02, -24400.15, 164553.14, 0.00, 0.00, 0.00, 0.00, 0.00, 0.00, 0.00, 0.00, 0
217, -181018.56, -38619.72, 34056.75, 30995.88, -167853.03, -187500.02, -24386.20, 164568.73, 0.00, 0.00, 0.00, 0.00, 0.00, 0.00, 0.00, 0.00, 0
218, -181013.45, -38593.91, 34065.98, 31003.61, -167853.61, -187500.02, -24377.10, 164580.25, 0.00, 0.00, 0.00, 0.00, 0.00, 0.00, 0.00, 0.00, 0
219, -181014.66, -38598.04, 34045.93, 31019.04, -167853.58, -187500.02, -24391.34, 164567.08, 0.00, 0.00, 0.00, 0.00, 0.00, 0.00, 0.00, 0.00, 0
220, -181020.11, -38564.85, 34029.75, 31032.00, -167850.52, -187500.02, -24404.46, 164554.56, 0.00, 0.00, 0.00, 0.00, 0.00, 0.00, 0.00, 0.00, 0
221, -181029.50, -38304.16, 34046.20, 30994.20, -167847.77, -187500.02, -24392.26, 164569.03, 0.00, 0.00, 0.00, 0.00, 0.00, 0.00, 0.00, 0.00, 0
222, -181034.64, -38178.88, 34072.35, 31005.06, -167848.34, -187500.02, -24379.16, 164586.91, 0.00, 0.00, 0.00, 0.00, 0.00, 0.00, 0.00, 0.00, 0
223, -181034.38, -38179.37, 34069.55, 31014.81, -167850.52, -187500.02, -24390.83, 164577.66, 0.00, 0.00, 0.00, 0.00, 0.00, 0.00, 0.00, 0.00, 0
224, -181036.41, -38185.36, 34062.49, 31040.09, -167848.91, -187500.02, -24405.82, 164563.44, 0.00, 0.00, 0.00, 0.00, 0.00, 0.00, 0.00, 0.00, 0
225, -181039.41, -38161.64, 34082.90, 30993.13, -167846.98, -187500.02, -24395.05, 164571.66, 0.00, 0.00, 0.00, 0.00, 0.00, 0.00, 0.00, 0.00, 0
226, -181037.45, -38128.66, 34112.18, 31004.26, -167846.66, -187500.02, -24378.53, 164586.45, 0.00, 0.00, 0.00, 0.00, 0.00, 0.00, 0.00, 0.00, 0
227, -181039.11, -38123.07, 34114.97, 31015.30, -167848.19, -187500.02, -24386.13, 164579.78, 0.00, 0.00, 0.00, 0.00, 0.00, 0.00, 0.00, 0.00, 0
228, -181041.84, -38132.21, 34104.94, 31043.91, -167846.91, -187500.02, -24403.83, 164563.34, 0.00, 0.00, 0.00, 0.00, 0.00, 0.00, 0.00, 0.00, 0
229, -181044.34, -38115.40, 34121.61, 31022.23, -167845.70, -187500.02, -24397.87, 164568.36, 0.00, 0.00, 0.00, 0.00, 0.00, 0.00, 0.00, 0.00, 0
230, -181041.70, -38084.11, 34151.99, 31008.51, -167844.20, -187500.02, -24381.48, 164587.17, 0.00, 0.00, 0.00, 0.00, 0.00, 0.00, 0.00, 0.00, 0
231, -181044.16, -38073.51, 34159.97, 31009.33, -167844.36, -187500.02, -24383.45, 164588.23, 0.00, 0.00, 0.00, 0.00, 0.00, 0.00, 0.00, 0.00, 0
232, -181049.19, -38082.70, 34148.61, 31040.94, -167841.88, -187500.02, -24401.35, 164570.03, 0.00, 0.00, 0.00, 0.00, 0.00, 0.00, 0.00, 0.00, 0
233, -181051.42, -38071.14, 34159.77, 31015.79, -167842.23, -187500.02, -24400.82, 164570.81, 0.00, 0.00, 0.00, 0.00, 0.00, 0.00, 0.00, 0.00, 0
234, -181049.61, -38037.39, 34190.25, 31005.96, -167842.69, -187500.02, -24383.49, 164589.50, 0.00, 0.00, 0.00, 0.00, 0.00, 0.00, 0.00, 0.00, 0
235, -181048.25, -38020.34, 34205.12, 31012.35, -167843.63, -187500.02, -24382.31, 164595.17, 0.00, 0.00, 0.00, 0.00, 0.00, 0.00, 0.00, 0.00, 0
236, -181053.73, -38029.35, 34194.55, 31036.69, -167842.03, -187500.02, -24401.33, 164578.22, 0.00, 0.00, 0.00, 0.00, 0.00, 0.00, 0.00, 0.00, 0
237, -181055.00, -38024.50, 34200.43, 31026.70, -167839.00, -187500.02, -24405.85, 164572.42, 0.00, 0.00, 0.00, 0.00, 0.00, 0.00, 0.00, 0.00, 0
238, -181053.23, -38046.89, 34229.71, 31005.11, -167837.17, -187500.02, -24390.58, 164589.05, 0.00, 0.00, 0.00, 0.00, 0.00, 0.00, 0.00, 0.00, 0
239, -181054.48, -38266.68, 34243.32, 31014.12, -167838.23, -187500.02, -24384.75, 164599.58, 0.00, 0.00, 0.00, 0.00, 0.00, 0.00, 0.00, 0.00, 0
240, -181060.20, -38342.34, 34220.77, 31032.18, -167838.28, -187500.02, -24402.65, 164584.81, 0.00, 0.00, 0.00, 0.00, 0.00, 0.00, 0.00, 0.00, 0
241, -181062.52, -38341.09, 34206.71, 31030.88, -167836.31, -187500.02, -24411.23, 164575.36, 0.00, 0.00, 0.00, 0.00, 0.00, 0.00, 0.00, 0.00, 0
242, -181063.70, -38312.05, 34220.09, 31009.11, -167834.03, -187500.02, -24396.53, 164589.34, 0.00, 0.00, 0.00, 0.00, 0.00, 0.00, 0.00, 0.00, 0
243, -181061.78, -38284.71, 34231.47, 31015.41, -167835.53, -187500.02, -24386.06, 164603.69, 0.00, 0.00, 0.00, 0.00, 0.00, 0.00, 0.00, 0.00, 0
244, -181065.19, -38288.11, 34213.34, 31028.80, -167835.75, -187500.02, -24400.77, 164590.47, 0.00, 0.00, 0.00, 0.00, 0.00, 0.00, 0.00, 0.00, 0
245, -181068.22, -38290.08, 34195.22, 31037.16, -167835.67, -187500.02, -24414.34, 164574.23, 0.00, 0.00, 0.00, 0.00, 0.00, 0.00, 0.00, 0.00, 0
246, -181068.28, -38264.33, 34204.65, 31010.63, -167835.41, -187500.02, -24404.60, 164585.59, 0.00, 0.00, 0.00, 0.00, 0.00, 0.00, 0.00, 0.00, 0
247, -181065.80, -38233.02, 34219.11, 31017.09, -167834.45, -187500.02, -24391.21, 164603.34, 0.00, 0.00, 0.00, 0.00, 0.00, 0.00, 0.00, 0.00, 0
248, -181068.23, -38231.36, 34205.72, 31026.12, -167835.88, -187500.02, -24399.19, 164597.14, 0.00, 0.00, 0.00, 0.00, 0.00, 0.00, 0.00, 0.00, 0
249, -181073.84, -38238.38, 34184.22, 31047.55, -167835.88, -187500.02, -24413.92, 164581.45, 0.00, 0.00, 0.00, 0.00, 0.00, 0.00, 0.00, 0.00, 0
250, -181076.14, -38217.05, 34190.10, 31013.33, -167836.72, -187500.02, -24407.12, 164588.92, 0.00, 0.00, 0.00, 0.00, 0.00, 0.00, 0.00, 0.00, 0
251, -181075.31, -38183.57, 34206.66, 31017.47, -167833.88, -187500.02, -24392.86, 164607.22, 0.00, 0.00, 0.00, 0.00, 0.00, 0.00, 0.00, 0.00, 0
252, -181076.75, -38174.95, 34197.95, 31020.11, -167830.66, -187500.02, -24399.03, 164604.13, 0.00, 0.00, 0.00, 0.00, 0.00, 0.00, 0.00, 0.00, 0
253, -181078.20, -38184.64, 34173.78, 31047.85, -167826.77, -187500.02, -24417.96, 164588.25, 0.00, 0.00, 0.00, 0.00, 0.00, 0.00, 0.00, 0.00, 0
254, -181079.55, -38169.52, 34174.14, 31012.69, -167823.69, -187500.02, -24415.70, 164591.47, 0.00, 0.00, 0.00, 0.00, 0.00, 0.00, 0.00, 0.00, 0
255, -181080.53, -38136.01, 34192.11, 31014.68, -167825.25, -187500.02, -24399.57, 164609.13, 0.00, 0.00, 0.00, 0.00, 0.00, 0.00, 0.00, 0.00, 0
0, -181081.73, -38121.73, 34190.14, 31024.24, -167828.17, -187500.02, -24400.08, 164610.72, 0.00, 0.00, 0.00, 0.00, 0.00, 0.00, 0.00, 0.00, 0
1, -181084.11, -38131.00, 34165.87, 31061.75, -167826.97, -187500.02, -24419.71, 164595.48, 0.00, 0.00, 0.00, 0.00, 0.00, 0.00, 0.00, 0.00, 0
2, -181086.83, -38121.61, 34161.33, 31027.08, -167824.56, -187500.02, -24421.54, 164596.44, 0.00, 0.00, 0.00, 0.00, 0.00, 0.00, 0.00, 0.00, 0
3, -181085.84, -38088.29, 34178.90, 31019.28, -167826.53, -187500.02, -24404.44, 164616.97, 0.00, 0.00, 0.00, 0.00, 0.00, 0.00, 0.00, 0.00, 0
4, -181085.00, -38068.64, 34182.21, 31023.84, -167826.70, -187500.02, -24400.55, 164624.66, 0.00, 0.00, 0.00, 0.00, 0.00, 0.00, 0.00, 0.00, 0
5, -181087.05, -38077.69, 34158.40, 31045.21, -167823.89, -187500.02, -24420.44, 164607.77, 0.00, 0.00, 0.00, 0.00, 0.00, 0.00, 0.00, 0.00, 0
6, -181090.23, -38073.47, 34147.30, 31027.48, -167824.30, -187500.02, -24427.21, 164602.63, 0.00, 0.00, 0.00, 0.00, 0.00, 0.00, 0.00, 0.00, 0
7, -181090.97, -38042.04, 34162.61, 31015.28, -167824.84, -187500.02, -24412.66, 164619.31, 0.00, 0.00, 0.00, 0.00, 0.00, 0.00, 0.00, 0.00, 0
8, -181091.75, -38016.76, 34171.03, 31026.75, -167822.97, -187500.02, -24403.68, 164633.28, 0.00, 0.00, 0.00, 0.00, 0.00, 0.00, 0.00, 0.00, 0
9, -181094.19, -38022.04, 34150.69, 31049.23, -167823.34, -187500.02, -24418.81, 164620.19, 0.00, 0.00, 0.00, 0.00, 0.00, 0.00, 0.00, 0.00, 0
10, -181096.39, -38023.04, 34136.03, 31051.91, -167821.03, -187500.02, -24428.96, 164611.45, 0.00, 0.00, 0.00, 0.00, 0.00, 0.00, 0.00, 0.00, 0
11, -181097.45, -37995.08, 34148.19, 31019.46, -167820.84, -187500.02, -24414.85, 164626.11, 0.00, 0.00, 0.00, 0.00, 0.00, 0.00, 0.00, 0.00, 0
12, -181097.50, -37965.82, 34161.13, 31026.86, -167821.52, -187500.02, -24401.94, 164640.84, 0.00, 0.00, 0.00, 0.00, 0.00, 0.00, 0.00, 0.00, 0
13, -181099.69, -37967.03, 34143.72, 31043.62, -167824.27, -187500.02, -24415.95, 164629.73, 0.00, 0.00, 0.00, 0.00, 0.00, 0.00, 0.00, 0.00, 0
14, -181103.64, -37971.72, 34124.41, 31065.53, -167822.34, -187500.02, -24430.61, 164614.28, 0.00, 0.00, 0.00, 0.00, 0.00, 0.00, 0.00, 0.00, 0
15, -181103.53, -37947.85, 34132.77, 31020.87, -167821.00, -187500.02, -24420.78, 164623.63, 0.00, 0.00, 0.00, 0.00, 0.00, 0.00, 0.00, 0.00, 0
16, -181102.80, -37915.48, 34148.84, 31028.67, -167820.47, -187500.02, -24404.28, 164640.63, 0.00, 0.00, 0.00, 0.00, 0.00, 0.00, 0.00, 0.00, 0
17, -181104.42, -37911.38, 34137.21, 31035.82, -167820.48, -187500.02, -24411.93, 164634.97, 0.00, 0.00, 0.00, 0.00, 0.00, 0.00, 0.00, 0.00, 0
18, -181106.88, -37919.80, 34114.75, 31059.78, -167816.63, -187500.02, -24429.47, 164619.61, 0.00, 0.00, 0.00, 0.00, 0.00, 0.00, 0.00, 0.00, 0
19, -181107.03, -37901.09, 34118.91, 31025.16, -167814.91, -187500.02, -24425.14, 164627.70, 0.00, 0.00, 0.00, 0.00, 0.00, 0.00, 0.00, 0.00, 0
20, -181102.19, -37867.54, 34135.85, 31029.27, -167816.33, -187500.02, -24409.00, 164648.23, 0.00, 0.00, 0.00, 0.00, 0.00, 0.00, 0.00, 0.00, 0
21, -181103.48, -37856.99, 34129.91, 31033.68, -167818.61, -187500.02, -24411.32, 164648.58, 0.00, 0.00, 0.00, 0.00, 0.00, 0.00, 0.00, 0.00, 0
22, -181106.17, -37866.09, 34105.92, 31049.43, -167816.59, -187500.02, -24431.06, 164632.89, 0.00, 0.00, 0.00, 0.00, 0.00, 0.00, 0.00, 0.00, 0
23, -181105.03, -37852.88, 34103.33, 31029.94, -167815.48, -187500.02, -24430.93, 164634.27, 0.00, 0.00, 0.00, 0.00, 0.00, 0.00, 0.00, 0.00, 0
24, -181098.44, -37819.42, 34121.34, 31025.70, -167817.06, -187500.02, -24412.75, 164654.98, 0.00, 0.00, 0.00, 0.00, 0.00, 0.00, 0.00, 0.00, 0
25, -181094.75, -37802.97, 34121.64, 31034.88, -167819.28, -187500.02, -24410.14, 164660.28, 0.00, 0.00, 0.00, 0.00, 0.00, 0.00, 0.00, 0.00, 0
26, -181101.03, -37795.93, 34096.78, 31083.54, -167819.16, -187500.02, -24428.71, 164642.86, 0.00, 0.00, 0.00, 0.00, 0.00, 0.00, 0.00, 0.00, 0
27, -181113.56, -37581.11, 34093.70, 31053.86, -167815.64, -187500.02, -24433.94, 164640.89, 0.00, 0.00, 0.00, 0.00, 0.00, 0.00, 0.00, 0.00, 0
28, -181116.78, -37405.89, 34122.13, 31027.19, -167816.48, -187500.02, -24417.74, 164659.73, 0.00, 0.00, 0.00, 0.00, 0.00, 0.00, 0.00, 0.00, 0
29, -181115.08, -37379.60, 34141.44, 31033.47, -167817.55, -187500.02, -24410.99, 164669.77, 0.00, 0.00, 0.00, 0.00, 0.00, 0.00, 0.00, 0.00, 0
30, -181119.44, -37386.11, 34132.30, 31056.96, -167813.03, -187500.02, -24427.30, 164653.66, 0.00, 0.00, 0.00, 0.00, 0.00, 0.00, 0.00, 0.00, 0
31, -181125.67, -37383.56, 34132.66, 31054.42, -167813.30, -187500.02, -24435.24, 164645.00, 0.00, 0.00, 0.00, 0.00, 0.00, 0.00, 0.00, 0.00, 0
32, -181123.42, -37353.12, 34159.68, 31024.73, -167813.19, -187500.02, -24419.86, 164662.02, 0.00, 0.00, 0.00, 0.00, 0.00, 0.00, 0.00, 0.00, 0
33, -181120.41, -37325.71, 34183.77, 31036.51, -167812.41, -187500.02, -24408.80, 164676.19, 0.00, 0.00, 0.00, 0.00, 0.00, 0.00, 0.00, 0.00, 0
34, -181124.16, -37329.27, 34177.02, 31041.77, -167813.97, -187500.02, -24423.95, 164664.09, 0.00, 0.00, 0.00, 0.00, 0.00, 0.00, 0.00, 0.00, 0
35, -181127.72, -37331.95, 34173.16, 31048.54, -167812.05, -187500.02, -24437.74, 164653.16, 0.00, 0.00, 0.00, 0.00, 0.00, 0.00, 0.00, 0.00, 0
36, -181126.81, -37304.81, 34196.96, 31020.49, -167812.84, -187500.02, -24427.26, 164668.14, 0.00, 0.00, 0.00, 0.00, 0.00, 0.00, 0.00, 0.00, 0
37, -181126.28, -37274.10, 34224.92, 31035.20, -167812.91, -187500.02, -24414.01, 164685.41, 0.00, 0.00, 0.00, 0.00, 0.00, 0.00, 0.00, 0.00, 0
38, -181131.80, -37269.88, 34224.07, 31059.54, -167809.78, -187500.02, -24424.62, 164676.72, 0.00, 0.00, 0.00, 0.00, 0.00, 0.00, 0.00, 0.00, 0
39, -181134.31, -37273.41, 34216.86, 31070.67, -167805.09, -187500.02, -24439.22, 164661.11, 0.00, 0.00, 0.00, 0.00, 0.00, 0.00, 0.00, 0.00, 0
40, -181135.56, -37249.74, 34237.04, 31024.60, -167804.80, -187500.02, -24430.72, 164669.63, 0.00, 0.00, 0.00, 0.00, 0.00, 0.00, 0.00, 0.00, 0
41, -181134.89, -37214.18, 34267.08, 31033.85, -167807.73, -187500.02, -24414.12, 164686.81, 0.00, 0.00, 0.00, 0.00, 0.00, 0.00, 0.00, 0.00, 0
42, -181134.58, -37207.09, 34271.01, 31047.18, -167809.88, -187500.02, -24420.17, 164682.48, 0.00, 0.00, 0.00, 0.00, 0.00, 0.00, 0.00, 0.00, 0
43, -181139.56, -37215.56, 34261.11, 31085.55, -167810.50, -187500.02, -24437.23, 164664.42, 0.00, 0.00, 0.00, 0.00, 0.00, 0.00, 0.00, 0.00, 0
44, -181140.20, -37199.89, 34276.76, 31044.07, -167810.45, -187500.02, -24433.09, 164667.63, 0.00, 0.00, 0.00, 0.00, 0.00, 0.00, 0.00, 0.00, 0
45, -181138.84, -37284.63, 34306.60, 31038.84, -167810.14, -187500.02, -24417.38, 164687.63, 0.00, 0.00, 0.00, 0.00, 0.00, 0.00, 0.00, 0.00, 0
46, -181140.03, -37491.65, 34306.93, 31039.60, -167810.56, -187500.02, -24420.69, 164690.58, 0.00, 0.00, 0.00, 0.00, 0.00, 0.00, 0.00, 0.00, 0
47, -181146.67, -37524.98, 34281.47, 31057.84, -167811.48, -187500.02, -24440.16, 164674.33, 0.00, 0.00, 0.00, 0.00, 0.00, 0.00, 0.00, 0.00, 0
48, -181149.27, -37513.73, 34278.10, 31053.39, -167808.75, -187500.02, -24439.82, 164676.16, 0.00, 0.00, 0.00, 0.00, 0.00, 0.00, 0.00, 0.00, 0
49, -181145.64, -37480.52, 34296.20, 31039.04, -167806.70, -187500.02, -24423.13, 164695.94, 0.00, 0.00, 0.00, 0.00, 0.00, 0.00, 0.00, 0.00, 0
50, -181145.48, -37461.81, 34298.28, 31043.42, -167807.89, -187500.02, -24421.04, 164703.50, 0.00, 0.00, 0.00, 0.00, 0.00, 0.00, 0.00, 0.00, 0
51, -181149.14, -37470.84, 34273.80, 31055.49, -167806.25, -187500.02, -24439.55, 164686.84, 0.00, 0.00, 0.00, 0.00, 0.00, 0.00, 0.00, 0.00, 0
52, -181151.66, -37465.59, 34264.17, 31045.28, -167802.50, -187500.02, -24444.58, 164680.27, 0.00, 0.00, 0.00, 0.00, 0.00, 0.00, 0.00, 0.00, 0
53, -181152.50, -37433.43, 34280.60, 31033.29, -167802.19, -187500.02, -24407.75, 164696.80, 0.00, 0.00, 0.00, 0.00, 0.00, 0.00, 0.00, 0.00, 0
54, -181153.33, -37409.96, 34287.98, 31045.23, -167803.09, -187500.02, -24295.23, 164707.72, 0.00, 0.00, 0.00, 0.00, 0.00, 0.00, 0.00, 0.00, 0
55, -181154.59, -37416.39, 34265.76, 31074.24, -167802.75, -187500.02, -24250.95, 164694.42, 0.00, 0.00, 0.00, 0.00, 0.00, 0.00, 0.00, 0.00, 0
56, -181157.50, -37415.68, 34251.52, 31067.78, -167801.73, -187500.02, -24223.34, 164687.30, 0.00, 0.00, 0.00, 0.00, 0.00, 0.00, 0.00, 0.00, 0
57, -181158.06, -37387.14, 34265.25, 31033.23, -167802.05, -187500.02, -24175.29, 164702.53, 0.00, 0.00, 0.00, 0.00, 0.00, 0.00, 0.00, 0.00, 0
58, -181159.16, -37358.39, 34277.32, 31046.26, -167803.28, -187500.02, -24129.76, 164718.52, 0.00, 0.00, 0.00, 0.00, 0.00, 0.00, 0.00, 0.00, 0
59, -181161.02, -37359.91, 34259.14, 31067.00, -167803.53, -187500.02, -24109.66, 164707.97, 0.00, 0.00, 0.00, 0.00, 0.00, 0.00, 0.00, 0.00, 0
60, -181164.97, -37364.45, 34240.37, 31078.00, -167801.22, -187500.02, -24093.26, 164693.77, 0.00, 0.00, 0.00, 0.00, 0.00, 0.00, 0.00, 0.00, 0
61, -181164.45, -37340.29, 34249.44, 31037.01, -167800.91, -187500.02, -24053.81, 164705.42, 0.00, 0.00, 0.00, 0.00, 0.00, 0.00, 0.00, 0.00, 0
62, -181163.66, -37308.73, 34264.51, 31044.67, -167801.38, -187500.02, -24007.96, 164723.50, 0.00, 0.00, 0.00, 0.00, 0.00, 0.00, 0.00, 0.00, 0
63, -181165.83, -37305.33, 34252.21, 31066.20, -167800.64, -187500.02, -23994.55, 164718.81, 0.00, 0.00, 0.00, 0.00, 0.00, 0.00, 0.00, 0.00, 0
64, -181170.34, -37313.18, 34230.45, 31078.71, -167797.38, -187500.02, -24071.64, 164704.64, 0.00, 0.00, 0.00, 0.00, 0.00, 0.00, 0.00, 0.00, 0
65, -181170.77, -37293.44, 34234.96, 31046.13, -167796.02, -187500.02, -24118.78, 164713.28, 0.00, 0.00, 0.00, 0.00, 0.00, 0.00, 0.00, 0.00, 0
66, -181168.61, -37259.33, 34252.91, 31047.67, -167796.39, -187500.02, -24116.53, 164734.66, 0.00, 0.00, 0.00, 0.00, 0.00, 0.00, 0.00, 0.00, 0
67, -181169.20, -37250.79, 34245.87, 31058.40, -167796.13, -187500.02, -24132.48, 164733.95, 0.00, 0.00, 0.00, 0.00, 0.00, 0.00, 0.00, 0.00, 0
68, -181175.52, -37260.82, 34221.30, 31093.33, -167791.83, -187500.02, -24162.99, 164715.81, 0.00, 0.00, 0.00, 0.00, 0.00, 0.00, 0.00, 0.00, 0
69, -181177.64, -37246.48, 34221.10, 31050.21, -167791.59, -187500.02, -24170.48, 164717.36, 0.00, 0.00, 0.00, 0.00, 0.00, 0.00, 0.00, 0.00, 0
70, -181176.80, -37211.45, 34238.87, 31048.67, -167792.55, -187500.02, -24162.41, 164736.63, 0.00, 0.00, 0.00, 0.00, 0.00, 0.00, 0.00, 0.00, 0
71, -181175.77, -37196.27, 34236.95, 31052.61, -167793.80, -187500.02, -24169.77, 164741.20, 0.00, 0.00, 0.00, 0.00, 0.00, 0.00, 0.00, 0.00, 0
72, -181180.17, -37206.11, 34212.05, 31078.56, -167793.83, -187500.02, -24195.03, 164726.52, 0.00, 0.00, 0.00, 0.00, 0.00, 0.00, 0.00, 0.00, 0
73, -181181.56, -37197.04, 34205.84, 31052.72, -167792.30, -187500.02, -24204.05, 164726.56, 0.00, 0.00, 0.00, 0.00, 0.00, 0.00, 0.00, 0.00, 0
74, -181181.09, -37163.73, 34223.11, 31045.54, -167790.83, -187500.02, -24193.10, 164745.63, 0.00, 0.00, 0.00, 0.00, 0.00, 0.00, 0.00, 0.00, 0
75, -181182.41, -37142.43, 34227.29, 31054.46, -167792.17, -187500.02, -24194.00, 164753.20, 0.00, 0.00, 0.00, 0.00, 0.00, 0.00, 0.00, 0.00, 0
76, -181186.61, -37150.88, 34203.33, 31080.17, -167791.20, -187500.02, -24217.71, 164735.50, 0.00, 0.00, 0.00, 0.00, 0.00, 0.00, 0.00, 0.00, 0
77, -181189.52, -37147.66, 34192.13, 31080.08, -167788.19, -187500.02, -24229.87, 164726.34, 0.00, 0.00, 0.00, 0.00, 0.00, 0.00, 0.00, 0.00, 0
78, -181187.13, -37117.51, 34206.82, 31051.40, -167788.13, -187500.02, -24218.94, 164741.45, 0.00, 0.00, 0.00, 0.00, 0.00, 0.00, 0.00, 0.00, 0
79, -181186.56, -37091.55, 34215.69, 31058.29, -167790.06, -187500.02, -24212.73, 164755.22, 0.00, 0.00, 0.00, 0.00, 0.00, 0.00, 0.00, 0.00, 0
80, -181190.72, -37096.27, 34195.33, 31081.78, -167789.31, -187500.02, -24233.40, 164742.77, 0.00, 0.00, 0.00, 0.00, 0.00, 0.00, 0.00, 0.00, 0
81, -181193.67, -37097.39, 34179.68, 31090.78, -167788.38, -187500.02, -24248.42, 164732.34, 0.00, 0.00, 0.00, 0.00, 0.00, 0.00, 0.00, 0.00, 0
82, -181190.52, -37070.25, 34192.09, 31047.22, -167789.33, -187500.02, -24241.72, 164746.30, 0.00, 0.00, 0.00, 0.00, 0.00, 0.00, 0.00, 0.00, 0
83, -181185.80, -37040.57, 34204.54, 31059.00, -167787.28, -187500.02, -24232.17, 164761.88, 0.00, 0.00, 0.00, 0.00, 0.00, 0.00, 0.00, 0.00, 0
84, -181187.69, -37041.04, 34188.18, 31060.01, -167788.92, -187500.02, -24247.44, 164752.38, 0.00, 0.00, 0.00, 0.00, 0.00, 0.00, 0.00, 0.00, 0
85, -181191.58, -37046.72, 34168.08, 31073.77, -167789.00, -187500.02, -24263.64, 164738.30, 0.00, 0.00, 0.00, 0.00, 0.00, 0.00, 0.00, 0.00, 0
86, -181187.69, -37022.58, 34175.88, 31060.72, -167784.64, -187500.02, -24256.87, 164745.58, 0.00, 0.00, 0.00, 0.00, 0.00, 0.00, 0.00, 0.00, 0
87, -181185.78, -36876.78, 34192.71, 31059.27, -167784.09, -187500.02, -24246.21, 164762.48, 0.00, 0.00, 0.00, 0.00, 0.00, 0.00, 0.00, 0.00, 0
88, -181195.64, -36645.82, 34191.15, 31064.05, -167784.69, -187500.02, -24255.71, 164756.84, 0.00, 0.00, 0.00, 0.00, 0.00, 0.00, 0.00, 0.00, 0
89, -181198.67, -36628.29, 34181.94, 31082.56, -167783.70, -187500.02, -24273.12, 164739.97, 0.00, 0.00, 0.00, 0.00, 0.00, 0.00, 0.00, 0.00, 0
90, -181200.02, -36610.46, 34198.28, 31051.22, -167781.58, -187500.02, -24269.97, 164744.59, 0.00, 0.00, 0.00, 0.00, 0.00, 0.00, 0.00, 0.00, 0
91, -181199.58, -36574.20, 34228.99, 31055.78, -167780.92, -187500.02, -24255.60, 164761.91, 0.00, 0.00, 0.00, 0.00, 0.00, 0.00, 0.00, 0.00, 0
92, -181201.66, -36560.99, 34237.17, 31067.27, -167778.11, -187500.02, -24260.98, 164761.52, 0.00, 0.00, 0.00, 0.00, 0.00, 0.00, 0.00, 0.00, 0
93, -181206.34, -36569.44, 34225.91, 31100.55, -167776.48, -187500.02, -24281.95, 164744.28, 0.00, 0.00, 0.00, 0.00, 0.00, 0.00, 0.00, 0.00, 0
94, -181207.63, -36555.29, 34237.95, 31062.04, -167775.92, -187500.02, -24282.85, 164744.95, 0.00, 0.00, 0.00, 0.00, 0.00, 0.00, 0.00, 0.00, 0
95, -181207.02, -36519.60, 34270.21, 31061.95, -167775.97, -187500.02, -24267.94, 164764.63, 0.00, 0.00, 0.00, 0.00, 0.00, 0.00, 0.00, 0.00, 0
96, -181206.64, -36498.95, 34283.80, 31065.12, -167779.11, -187500.02, -24268.56, 164769.44, 0.00, 0.00, 0.00, 0.00, 0.00, 0.00, 0.00, 0.00, 0
97, -181212.42, -36506.43, 34272.40, 31091.92, -167777.34, -187500.02, -24289.77, 164751.53, 0.00, 0.00, 0.00, 0.00, 0.00, 0.00, 0.00, 0.00, 0
98, -181215.33, -36500.91, 34278.25, 31076.59, -167774.13, -187500.02, -24296.17, 164748.16, 0.00, 0.00, 0.00, 0.00, 0.00, 0.00, 0.00, 0.00, 0
99, -181212.67, -36467.59, 34308.50, 31055.83, -167774.41, -187500.02, -24280.92, 164767.39, 0.00, 0.00, 0.00, 0.00, 0.00, 0.00, 0.00, 0.00, 0
100, -181213.34, -36442.46, 34328.52, 31065.75, -167775.73, -187500.02, -24277.35, 164779.33, 0.00, 0.00, 0.00, 0.00, 0.00, 0.00, 0.00, 0.00, 0
101, -181217.30, -36446.66, 34320.12, 31087.32, -167777.55, -187500.02, -24296.77, 164764.45, 0.00, 0.00, 0.00, 0.00, 0.00, 0.00, 0.00, 0.00, 0
102, -181217.70, -36443.78, 34320.59, 31073.86, -167774.69, -187500.02, -24306.22, 164755.23, 0.00, 0.00, 0.00, 0.00, 0.00, 0.00, 0.00, 0.00, 0
103, -181216.11, -36413.47, 34348.39, 31052.07, -167773.34, -187500.02, -24294.11, 164770.27, 0.00, 0.00, 0.00, 0.00, 0.00, 0.00, 0.00, 0.00, 0
104, -181215.91, -36427.06, 34372.94, 31065.48, -167774.27, -187500.02, -24283.98, 164784.34, 0.00, 0.00, 0.00, 0.00, 0.00, 0.00, 0.00, 0.00, 0
105, -181220.31, -36668.95, 34361.80, 31097.33, -167774.06, -187500.02, -24297.71, 164771.20, 0.00, 0.00, 0.00, 0.00, 0.00, 0.00, 0.00, 0.00, 0
106, -181227.17, -36754.11, 34344.21, 31096.24, -167772.84, -187500.02, -24311.28, 164757.91, 0.00, 0.00, 0.00, 0.00, 0.00, 0.00, 0.00, 0.00, 0
107, -181228.86, -36727.91, 34354.50, 31051.82, -167770.83, -187500.02, -24301.24, 164769.36, 0.00, 0.00, 0.00, 0.00, 0.00, 0.00, 0.00, 0.00, 0
108, -181227.53, -36696.58, 34368.46, 31067.58, -167772.95, -187500.02, -24289.57, 164785.39, 0.00, 0.00, 0.00, 0.00, 0.00, 0.00, 0.00, 0.00, 0
109, -181227.06, -36694.34, 34354.63, 31072.81, -167771.03, -187500.02, -24301.35, 164776.97, 0.00, 0.00, 0.00, 0.00, 0.00, 0.00, 0.00, 0.00, 0
110, -181228.31, -36700.36, 34333.38, 31096.37, -167770.83, -187500.02, -24318.92, 164760.38, 0.00, 0.00, 0.00, 0.00, 0.00, 0.00, 0.00, 0.00, 0
111, -181228.47, -36679.30, 34339.21, 31066.44, -167772.39, -187500.02, -24313.91, 164768.14, 0.00, 0.00, 0.00, 0.00, 0.00, 0.00, 0.00, 0.00, 0
112, -181229.02, -36646.49, 34356.06, 31067.65, -167773.48, -187500.02, -24299.09, 164786.98, 0.00, 0.00, 0.00, 0.00, 0.00, 0.00, 0.00, 0.00, 0
113, -181230.89, -36638.51, 34348.57, 31068.43, -167774.27, -187500.02, -24305.53, 164783.45, 0.00, 0.00, 0.00, 0.00, 0.00, 0.00, 0.00, 0.00, 0
114, -181235.16, -36648.01, 34324.32, 31108.46, -167772.86, -187500.02, -24325.92, 164766.13, 0.00, 0.00, 0.00, 0.00, 0.00, 0.00, 0.00, 0.00, 0
115, -181238.75, -36632.36, 34325.53, 31082.94, -167771.94, -187500.02, -24324.78, 164771.11, 0.00, 0.00, 0.00, 0.00, 0.00, 0.00, 0.00, 0.00, 0
116, -181237.44, -36598.72, 34343.23, 31069.50, -167770.72, -187500.02, -24308.79, 164791.16, 0.00, 0.00, 0.00, 0.00, 0.00, 0.00, 0.00, 0.00, 0
117, -181236.86, -36584.15, 34339.61, 31070.67, -167771.31, -187500.02, -24312.19, 164794.52, 0.00, 0.00, 0.00, 0.00, 0.00, 0.00, 0.00, 0.00, 0
118, -181240.61, -36593.36, 34315.27, 31094.56, -167771.16, -187500.02, -24331.71, 164777.44, 0.00, 0.00, 0.00, 0.00, 0.00, 0.00, 0.00, 0.00, 0
119, -181243.52, -36582.54, 34311.25, 31078.33, -167770.16, -187500.02, -24333.92, 164774.06, 0.00, 0.00, 0.00, 0.00, 0.00, 0.00, 0.00, 0.00, 0
120, -181242.84, -36548.95, 34328.59, 31065.46, -167769.66, -187500.02, -24317.85, 164793.89, 0.00, 0.00, 0.00, 0.00, 0.00, 0.00, 0.00, 0.00, 0
121, -181242.00, -36529.66, 34331.36, 31074.58, -167767.14, -187500.02, -24315.72, 164802.30, 0.00, 0.00, 0.00, 0.00, 0.00, 0.00, 0.00, 0.00, 0
122, -181245.89, -36537.84, 34308.54, 31104.60, -167763.34, -187500.02, -24334.81, 164787.42, 0.00, 0.00, 0.00, 0.00, 0.00, 0.00, 0.00, 0.00, 0
123, -181248.81, -36532.25, 34299.49, 31084.39, -167762.00, -187500.02, -24341.76, 164784.05, 0.00, 0.00, 0.00, 0.00, 0.00, 0.00, 0.00, 0.00, 0
124, -181248.33, -36502.01, 34313.01, 31064.79, -167762.22, -187500.02, -24327.55, 164801.06, 0.00, 0.00, 0.00, 0.00, 0.00, 0.00, 0.00, 0.00, 0
125, -181244.34, -36478.20, 34319.85, 31075.83, -167763.67, -187500.02, -24320.42, 164811.91, 0.00, 0.00, 0.00, 0.00, 0.00, 0.00, 0.00, 0.00, 0
126, -181250.72, -36482.98, 34300.29, 31112.82, -167763.58, -187500.02, -24337.49, 164798.75, 0.00, 0.00, 0.00, 0.00, 0.00, 0.00, 0.00, 0.00, 0
127, -181255.88, -36481.78, 34286.59, 31105.36, -167762.44, -187500.02, -24348.11, 164789.86, 0.00, 0.00, 0.00, 0.00, 0.00, 0.00, 0.00, 0.00, 0
128, -181253.73, -36454.15, 34298.21, 31069.75, -167760.59, -187500.02, -24335.62, 164803.00, 0.00, 0.00, 0.00, 0.00, 0.00, 0.00, 0.00, 0.00, 0
129, -181251.58, -36427.02, 34308.41, 31076.84, -167763.42, -187500.02, -24324.96, 164815.97, 0.00, 0.00, 0.00, 0.00, 0.00, 0.00, 0.00, 0.00, 0
130, -181255.59, -36426.91, 34292.20, 31084.48, -167765.80, -187500.02, -24339.60, 164805.58, 0.00, 0.00, 0.00, 0.00, 0.00, 0.00, 0.00, 0.00, 0
131, -181258.61, -36429.23, 34274.63, 31089.69, -167762.33, -187500.02, -24353.61, 164794.06, 0.00, 0.00, 0.00, 0.00, 0.00, 0.00, 0.00, 0.00, 0
132, -181260.22, -36406.50, 34282.64, 31077.93, -167763.19, -187500.02, -24346.57, 164803.94, 0.00, 0.00, 0.00, 0.00, 0.00, 0.00, 0.00, 0.00, 0
133, -181257.47, -36376.14, 34296.58, 31079.23, -167763.45, -187500.02, -24334.81, 164819.44, 0.00, 0.00, 0.00, 0.00, 0.00, 0.00, 0.00, 0.00, 0
134, -181259.94, -36372.01, 34284.60, 31084.08, -167763.84, -187500.02, -24343.22, 164813.44, 0.00, 0.00, 0.00, 0.00, 0.00, 0.00, 0.00, 0.00, 0
135, -181265.09, -36377.51, 34264.33, 31108.33, -167761.53, -187500.02, -24359.64, 164800.64, 0.00, 0.00, 0.00, 0.00, 0.00, 0.00, 0.00, 0.00, 0
136, -181265.31, -36357.30, 34268.33, 31069.82, -167761.48, -187500.02, -24354.33, 164808.66, 0.00, 0.00, 0.00, 0.00, 0.00, 0.00, 0.00, 0.00, 0
137, -181265.25, -36326.07, 34283.53, 31077.42, -167763.27, -187500.02, -24339.80, 164827.95, 0.00, 0.00, 0.00, 0.00, 0.00, 0.00, 0.00, 0.00, 0
138, -181267.52, -36316.60, 34276.31, 31084.86, -167760.75, -187500.02, -24343.20, 164828.63, 0.00, 0.00, 0.00, 0.00, 0.00, 0.00, 0.00, 0.00, 0
139, -181270.73, -36324.54, 34253.36, 31122.84, -167758.89, -187500.02, -24359.47, 164813.78, 0.00, 0.00, 0.00, 0.00, 0.00, 0.00, 0.00, 0.00, 0
140, -181270.41, -36309.87, 34253.46, 31088.10, -167757.30, -187500.02, -24358.91, 164815.92, 0.00, 0.00, 0.00, 0.00, 0.00, 0.00, 0.00, 0.00, 0
141, -181267.92, -36277.35, 34269.45, 31081.06, -167759.36, -187500.02, -24344.29, 164835.14, 0.00, 0.00, 0.00, 0.00, 0.00, 0.00, 0.00, 0.00, 0
142, -181267.05, -36262.35, 34268.24, 31082.74, -167760.47, -187500.02, -24345.01, 164839.33, 0.00, 0.00, 0.00, 0.00, 0.00, 0.00, 0.00, 0.00, 0
143, -181269.83, -36270.44, 34245.24, 31113.69, -167757.50, -187500.02, -24362.57, 164822.31, 0.00, 0.00, 0.00, 0.00, 0.00, 0.00, 0.00, 0.00, 0
144, -181268.94, -36261.03, 34238.65, 31094.05, -167756.75, -187500.02, -24364.05, 164820.94, 0.00, 0.00, 0.00, 0.00, 0.00, 0.00, 0.00, 0.00, 0
145, -181261.63, -36222.39, 34253.58, 31075.88, -167756.45, -187500.02, -24347.89, 164837.94, 0.00, 0.00, 0.00, 0.00, 0.00, 0.00, 0.00, 0.00, 0
146, -181265.11, -36029.16, 34260.17, 31084.88, -167757.80, -187500.02, -24342.57, 164846.64, 0.00, 0.00, 0.00, 0.00, 0.00, 0.00, 0.00, 0.00, 0
147, -181275.80, -35856.93, 34250.09, 31114.52, -167757.70, -187500.02, -24359.22, 164831.95, 0.00, 0.00, 0.00, 0.00, 0.00, 0.00, 0.00, 0.00, 0
148, -181280.00, -35843.88, 34253.24, 31098.63, -167754.08, -187500.02, -24366.89, 164824.64, 0.00, 0.00, 0.00, 0.00, 0.00, 0.00, 0.00, 0.00, 0
149, -181279.44, -35813.95, 34280.55, 31074.96, -167751.56, -187500.02, -24354.75, 164839.59, 0.00, 0.00, 0.00, 0.00, 0.00, 0.00, 0.00, 0.00, 0
150, -181277.38, -35788.43, 34302.50, 31084.95, -167752.88, -187500.02, -24346.64, 164853.52, 0.00, 0.00, 0.00, 0.00, 0.00, 0.00, 0.00, 0.00, 0
151, -181279.81, -35790.64, 34297.12, 31102.65, -167753.23, -187500.02, -24360.96, 164842.86, 0.00, 0.00, 0.00, 0.00, 0.00, 0.00, 0.00, 0.00, 0
152, -181284.75, -35789.52, 34295.53, 31113.43, -167750.13, -187500.02, -24372.12, 164832.27, 0.00, 0.00, 0.00, 0.00, 0.00, 0.00, 0.00, 0.00, 0
153, -181284.63, -35761.96, 34321.01, 31078.56, -167748.55, -187500.02, -24362.10, 164844.33, 0.00, 0.00, 0.00, 0.00, 0.00, 0.00, 0.00, 0.00, 0
154, -181282.97, -35728.95, 34348.28, 31088.30, -167748.03, -187500.02, -24351.60, 164859.44, 0.00, 0.00, 0.00, 0.00, 0.00, 0.00, 0.00, 0.00, 0
155, -181285.27, -35724.12, 34346.05, 31104.48, -167748.67, -187500.02, -24363.54, 164850.13, 0.00, 0.00, 0.00, 0.00, 0.00, 0.00, 0.00, 0.00, 0
156, -181290.72, -35727.45, 34338.45, 31135.20, -167747.52, -187500.02, -24378.69, 164834.47, 0.00, 0.00, 0.00, 0.00, 0.00, 0.00, 0.00, 0.00, 0
157, -181292.75, -35702.38, 34359.55, 31086.98, -167748.09, -187500.02, -24371.49, 164845.14, 0.00, 0.00, 0.00, 0.00, 0.00, 0.00, 0.00, 0.00, 0
158, -181289.03, -35666.97, 34389.05, 31089.17, -167750.08, -187500.02, -24357.68, 164864.20, 0.00, 0.00, 0.00, 0.00, 0.00, 0.00, 0.00, 0.00, 0
159, -181291.22, -35658.96, 34393.25, 31096.84, -167748.89, -187500.02, -24365.64, 164861.14, 0.00, 0.00, 0.00, 0.00, 0.00, 0.00, 0.00, 0.00, 0
160, -181295.19, -35665.52, 34384.20, 31117.65, -167749.17, -187500.02, -24384.05, 164846.23, 0.00, 0.00, 0.00, 0.00, 0.00, 0.00, 0.00, 0.00, 0
161, -181296.31, -35644.35, 34399.98, 31089.76, -167747.63, -187500.02, -24380.25, 164853.52, 0.00, 0.00, 0.00, 0.00, 0.00, 0.00, 0.00, 0.00, 0
162, -181294.23, -35608.94, 34431.50, 31087.61, -167751.72, -187500.02, -24364.79, 164872.42, 0.00, 0.00, 0.00, 0.00, 0.00, 0.00, 0.00, 0.00, 0
163, -181294.80, -35666.77, 34440.68, 31092.06, -167750.94, -187500.02, -24367.80, 164873.84, 0.00, 0.00, 0.00, 0.00, 0.00, 0.00, 0.00, 0.00, 0
164, -181301.28, -35917.33, 34422.63, 31120.65, -167748.00, -187500.02, -24386.89, 164857.70, 0.00, 0.00, 0.00, 0.00, 0.00, 0.00, 0.00, 0.00, 0
165, -181303.98, -35957.52, 34420.03, 31109.87, -167745.02, -187500.02, -24385.69, 164858.55, 0.00, 0.00, 0.00, 0.00, 0.00, 0.00, 0.00, 0.00, 0
166, -181302.69, -35923.97, 34436.86, 31092.15, -167743.67, -187500.02, -24367.56, 164876.78, 0.00, 0.00, 0.00, 0.00, 0.00, 0.00, 0.00, 0.00, 0
167, -181302.69, -35905.80, 34438.18, 31094.20, -167746.42, -187500.02, -24363.69, 164880.39, 0.00, 0.00, 0.00, 0.00, 0.00, 0.00, 0.00, 0.00, 0
168, -181307.28, -35914.83, 34413.77, 31110.56, -167744.78, -187500.02, -24381.55, 164863.91, 0.00, 0.00, 0.00, 0.00, 0.00, 0.00, 0.00, 0.00, 0
169, -181309.23, -35908.97, 34404.61, 31110.32, -167741.36, -187500.02, -24386.45, 164859.31, 0.00, 0.00, 0.00, 0.00, 0.00, 0.00, 0.00, 0.00, 0
170, -181307.88, -35876.98, 34421.44, 31092.04, -167738.13, -187500.02, -24372.74, 164876.66, 0.00, 0.00, 0.00, 0.00, 0.00, 0.00, 0.00, 0.00, 0
171, -181308.77, -35853.02, 34428.86, 31094.88, -167737.14, -187500.02, -24366.06, 164888.09, 0.00, 0.00, 0.00, 0.00, 0.00, 0.00, 0.00, 0.00, 0
172, -181312.73, -35860.38, 34407.07, 31106.74, -167737.45, -187500.02, -24383.23, 164872.91, 0.00, 0.00, 0.00, 0.00, 0.00, 0.00, 0.00, 0.00, 0
173, -181316.94, -35859.80, 34393.07, 31132.60, -167735.55, -187500.02, -24392.03, 164862.73, 0.00, 0.00, 0.00, 0.00, 0.00, 0.00, 0.00, 0.00, 0
174, -181317.36, -35830.11, 34406.73, 31093.42, -167733.91, -187500.02, -24378.24, 164877.06, 0.00, 0.00, 0.00, 0.00, 0.00, 0.00, 0.00, 0.00, 0
175, -181317.28, -35801.21, 34418.40, 31096.93, -167736.67, -187500.02, -24365.84, 164889.89, 0.00, 0.00, 0.00, 0.00, 0.00, 0.00, 0.00, 0.00, 0
176, -181318.06, -35803.36, 34400.47, 31098.85, -167736.63, -187500.02, -24379.49, 164878.44, 0.00, 0.00, 0.00, 0.00, 0.00, 0.00, 0.00, 0.00, 0
177, -181319.27, -35807.25, 34381.95, 31105.38, -167735.20, -187500.02, -24393.62, 164864.41, 0.00, 0.00, 0.00, 0.00, 0.00, 0.00, 0.00, 0.00, 0
178, -181321.69, -35781.68, 34391.36, 31090.56, -167732.00, -187500.02, -24384.48, 164875.94, 0.00, 0.00, 0.00, 0.00, 0.00, 0.00, 0.00, 0.00, 0
179, -181320.45, -35750.32, 34405.79, 31097.71, -167734.70, -187500.02, -24369.37, 164893.58, 0.00, 0.00, 0.00, 0.00, 0.00, 0.00, 0.00, 0.00, 0
180, -181324.77, -35747.57, 34392.58, 31121.65, -167736.69, -187500.02, -24379.31, 164887.73, 0.00, 0.00, 0.00, 0.00, 0.00, 0.00, 0.00, 0.00, 0
181, -181328.52, -35754.83, 34371.21, 31141.03, -167735.95, -187500.02, -24395.86, 164874.47, 0.00, 0.00, 0.00, 0.00, 0.00, 0.00, 0.00, 0.00, 0
182, -181327.00, -35734.83, 34376.38, 31083.81, -167733.34, -187500.02, -24389.82, 164882.69, 0.00, 0.00, 0.00, 0.00, 0.00, 0.00, 0.00, 0.00, 0
183, -181324.78, -35701.68, 34393.19, 31098.25, -167734.45, -187500.02, -24373.39, 164902.02, 0.00, 0.00, 0.00, 0.00, 0.00, 0.00, 0.00, 0.00, 0
184, -181324.59, -35692.61, 34385.65, 31102.63, -167735.47, -187500.02, -24378.26, 164901.48, 0.00, 0.00, 0.00, 0.00, 0.00, 0.00, 0.00, 0.00, 0
185, -181330.84, -35702.20, 34360.84, 31131.91, -167730.86, -187500.02, -24396.37, 164884.72, 0.00, 0.00, 0.00, 0.00, 0.00, 0.00, 0.00, 0.00, 0
186, -181332.77, -35686.53, 34360.75, 31102.76, -167730.39, -187500.02, -24396.48, 164886.67, 0.00, 0.00, 0.00, 0.00, 0.00, 0.00, 0.00, 0.00, 0
187, -181329.55, -35652.20, 34379.20, 31099.34, -167730.19, -187500.02, -24380.43, 164905.52, 0.00, 0.00, 0.00, 0.00, 0.00, 0.00, 0.00, 0.00, 0
188, -181331.97, -35637.48, 34376.58, 31104.78, -167731.27, -187500.02, -24381.39, 164908.23, 0.00, 0.00, 0.00, 0.00, 0.00, 0.00, 0.00, 0.00, 0
189, -181335.94, -35646.54, 34351.39, 31132.54, -167731.11, -187500.02, -24401.40, 164891.47, 0.00, 0.00, 0.00, 0.00, 0.00, 0.00, 0.00, 0.00, 0
190, -181337.66, -35636.82, 34346.45, 31108.89, -167732.31, -187500.02, -24405.00, 164891.63, 0.00, 0.00, 0.00, 0.00, 0.00, 0.00, 0.00, 0.00, 0
191, -181335.98, -35603.38, 34364.13, 31096.93, -167732.98, -187500.02, -24389.37, 164912.13, 0.00, 0.00, 0.00, 0.00, 0.00, 0.00, 0.00, 0.00, 0
192, -181336.83, -35582.86, 34367.80, 31104.11, -167732.05, -187500.02, -24384.01, 164921.06, 0.00, 0.00, 0.00, 0.00, 0.00, 0.00, 0.00, 0.00, 0
193, -181340.19, -35591.71, 34344.01, 31135.53, -167731.11, -187500.02, -24402.67, 164904.75, 0.00, 0.00, 0.00, 0.00, 0.00, 0.00, 0.00, 0.00, 0
194, -181343.88, -35587.08, 34333.04, 31125.05, -167730.81, -187500.02, -24409.76, 164898.89, 0.00, 0.00, 0.00, 0.00, 0.00, 0.00, 0.00, 0.00, 0
195, -181340.17, -35555.50, 34347.84, 31094.94, -167729.39, -187500.02, -24395.14, 164916.03, 0.00, 0.00, 0.00, 0.00, 0.00, 0.00, 0.00, 0.00, 0
196, -181338.95, -35529.55, 34356.60, 31105.00, -167728.41, -187500.02, -24385.51, 164927.69, 0.00, 0.00, 0.00, 0.00, 0.00, 0.00, 0.00, 0.00, 0
197, -181343.86, -35533.64, 34336.01, 31120.69, -167726.86, -187500.02, -24402.54, 164915.77, 0.00, 0.00, 0.00, 0.00, 0.00, 0.00, 0.00, 0.00, 0
198, -181347.03, -35535.09, 34320.23, 31121.65, -167725.56, -187500.02, -24414.45, 164905.78, 0.00, 0.00, 0.00, 0.00, 0.00, 0.00, 0.00, 0.00, 0
199, -181345.75, -35507.06, 34332.70, 31093.00, -167724.56, -187500.02, -24401.69, 164919.80, 0.00, 0.00, 0.00, 0.00, 0.00, 0.00, 0.00, 0.00, 0
200, -181341.73, -35477.54, 34346.43, 31105.94, -167722.33, -187500.02, -24389.55, 164934.92, 0.00, 0.00, 0.00, 0.00, 0.00, 0.00, 0.00, 0.00, 0
201, -181343.70, -35477.27, 34330.36, 31119.21, -167721.86, -187500.02, -24402.38, 164926.05, 0.00, 0.00, 0.00, 0.00, 0.00, 0.00, 0.00, 0.00, 0
202, -181348.28, -35482.52, 34310.29, 31148.52, -167720.28, -187500.02, -24416.75, 164912.28, 0.00, 0.00, 0.00, 0.00, 0.00, 0.00, 0.00, 0.00, 0
203, -181344.06, -35457.06, 34317.84, 31101.91, -167718.44, -187500.02, -24407.84, 164921.30, 0.00, 0.00, 0.00, 0.00, 0.00, 0.00, 0.00, 0.00, 0
204, -181344.19, -35288.87, 34336.05, 31108.69, -167719.30, -187500.02, -24393.17, 164940.00, 0.00, 0.00, 0.00, 0.00, 0.00, 0.00, 0.00, 0.00, 0
205, -181353.05, -35072.50, 34335.05, 31115.71, -167718.00, -187500.02, -24401.78, 164937.42, 0.00, 0.00, 0.00, 0.00, 0.00, 0.00, 0.00, 0.00, 0
206, -181355.39, -35058.53, 34325.59, 31139.04, -167716.33, -187500.02, -24418.56, 164921.95, 0.00, 0.00, 0.00, 0.00, 0.00, 0.00, 0.00, 0.00, 0
207, -181358.34, -35037.07, 34342.63, 31096.17, -167717.52, -187500.02, -24413.51, 164928.88, 0.00, 0.00, 0.00, 0.00, 0.00, 0.00, 0.00, 0.00, 0
208, -181358.14, -35001.87, 34373.72, 31108.11, -167719.27, -187500.02, -24395.72, 164950.03, 0.00, 0.00, 0.00, 0.00, 0.00, 0.00, 0.00, 0.00, 0
209, -181359.83, -34989.35, 34381.18, 31121.54, -167720.75, -187500.02, -24398.74, 164951.11, 0.00, 0.00, 0.00, 0.00, 0.00, 0.00, 0.00, 0.00, 0
210, -181363.75, -34996.06, 34370.50, 31152.32, -167718.31, -187500.02, -24418.81, 164935.11, 0.00, 0.00, 0.00, 0.00, 0.00, 0.00, 0.00, 0.00, 0
211, -181367.02, -34978.69, 34382.50, 31124.60, -167716.67, -187500.02, -24420.33, 164937.23, 0.00, 0.00, 0.00, 0.00, 0.00, 0.00, 0.00, 0.00, 0
212, -181364.70, -34941.56, 34414.04, 31111.86, -167715.84, -187500.02, -24405.02, 164956.50, 0.00, 0.00, 0.00, 0.00, 0.00, 0.00, 0.00, 0.00, 0
213, -181364.53, -34921.52, 34428.55, 31116.85, -167714.72, -187500.02, -24403.23, 164962.75, 0.00, 0.00, 0.00, 0.00, 0.00, 0.00, 0.00, 0.00, 0
214, -181368.23, -34926.86, 34417.24, 31139.29, -167714.39, -187500.02, -24421.22, 164947.67, 0.00, 0.00, 0.00, 0.00, 0.00, 0.00, 0.00, 0.00, 0
215, -181369.05, -34915.93, 34423.92, 31114.16, -167714.66, -187500.02, -24423.66, 164945.31, 0.00, 0.00, 0.00, 0.00, 0.00, 0.00, 0.00, 0.00, 0
216, -181369.73, -34879.29, 34455.04, 31106.79, -167716.84, -187500.02, -24407.63, 164964.81, 0.00, 0.00, 0.00, 0.00, 0.00, 0.00, 0.00, 0.00, 0
217, -181369.45, -34852.54, 34474.84, 31118.50, -167716.84, -187500.02, -24400.50, 164976.13, 0.00, 0.00, 0.00, 0.00, 0.00, 0.00, 0.00, 0.00, 0
218, -181374.56, -34855.87, 34465.67, 31153.46, -167712.83, -187500.02, -24418.83, 164961.19, 0.00, 0.00, 0.00, 0.00, 0.00, 0.00, 0.00, 0.00, 0
219, -181376.44, -34851.42, 34467.04, 31133.21, -167710.70, -187500.02, -24427.60, 164953.50, 0.00, 0.00, 0.00, 0.00, 0.00, 0.00, 0.00, 0.00, 0
220, -181375.80, -34817.73, 34495.69, 31104.48, -167712.27, -187500.02, -24412.73, 164968.55, 0.00, 0.00, 0.00, 0.00, 0.00, 0.00, 0.00, 0.00, 0
221, -181375.44, -34797.46, 34519.77, 31116.11, -167711.55, -187500.02, -24402.81, 164981.94, 0.00, 0.00, 0.00, 0.00, 0.00, 0.00, 0.00, 0.00, 0
222, -181377.92, -34983.79, 34511.41, 31133.52, -167710.31, -187500.02, -24419.06, 164969.55, 0.00, 0.00, 0.00, 0.00, 0.00, 0.00, 0.00, 0.00, 0
223, -181383.59, -35148.77, 34495.76, 31139.85, -167710.19, -187500.02, -24431.51, 164958.23, 0.00, 0.00, 0.00, 0.00, 0.00, 0.00, 0.00, 0.00, 0
224, -181382.77, -35127.71, 34506.60, 31108.49, -167711.33, -187500.02, -24419.21, 164972.88, 0.00, 0.00, 0.00, 0.00, 0.00, 0.00, 0.00, 0.00, 0
225, -181381.66, -35096.62, 34520.86, 31117.05, -167711.19, -187500.02, -24405.11, 164990.78, 0.00, 0.00, 0.00, 0.00, 0.00, 0.00, 0.00, 0.00, 0
226, -181384.89, -35095.39, 34506.53, 31132.71, -167709.45, -187500.02, -24415.68, 164982.88, 0.00, 0.00, 0.00, 0.00, 0.00, 0.00, 0.00, 0.00, 0
227, -181388.98, -35101.56, 34484.85, 31151.49, -167707.19, -187500.02, -24432.51, 164968.23, 0.00, 0.00, 0.00, 0.00, 0.00, 0.00, 0.00, 0.00, 0
228, -181388.48, -35080.48, 34490.93, 31105.02, -167709.06, -187500.02, -24425.20, 164976.28, 0.00, 0.00, 0.00, 0.00, 0.00, 0.00, 0.00, 0.00, 0
229, -181389.47, -35047.11, 34508.39, 31118.05, -167709.14, -187500.02, -24408.55, 164994.77, 0.00, 0.00, 0.00, 0.00, 0.00, 0.00, 0.00, 0.00, 0
230, -181390.91, -35040.07, 34499.80, 31120.06, -167710.11, -187500.02, -24415.81, 164992.03, 0.00, 0.00, 0.00, 0.00, 0.00, 0.00, 0.00, 0.00, 0
231, -181391.91, -35048.79, 34475.48, 31160.12, -167708.39, -187500.02, -24433.74, 164975.84, 0.00, 0.00, 0.00, 0.00, 0.00, 0.00, 0.00, 0.00, 0
232, -181393.61, -35032.04, 34476.67, 31117.96, -167704.70, -187500.02, -24430.50, 164980.39, 0.00, 0.00, 0.00, 0.00, 0.00, 0.00, 0.00, 0.00, 0
233, -181391.75, -34997.82, 34494.57, 31118.75, -167701.80, -187500.02, -24413.36, 164999.77, 0.00, 0.00, 0.00, 0.00, 0.00, 0.00, 0.00, 0.00, 0
234, -181393.36, -34983.86, 34491.31, 31124.60, -167702.78, -187500.02, -24414.79, 165002.94, 0.00, 0.00, 0.00, 0.00, 0.00, 0.00, 0.00, 0.00, 0
235, -181396.58, -34993.02, 34466.75, 31157.12, -167705.17, -187500.02, -24433.83, 164984.72, 0.00, 0.00, 0.00, 0.00, 0.00, 0.00, 0.00, 0.00, 0
236, -181399.44, -34982.40, 34462.63, 31136.56, -167704.03, -187500.02, -24434.14, 164981.97, 0.00, 0.00, 0.00, 0.00, 0.00, 0.00, 0.00, 0.00, 0
237, -181396.63, -34949.32, 34479.71, 31118.52, -167704.80, -187500.02, -24415.10, 164999.75, 0.00, 0.00, 0.00, 0.00, 0.00, 0.00, 0.00, 0.00, 0
238, -181395.80, -34930.90, 34481.81, 31123.26, -167703.92, -187500.02, -24411.57, 165008.55, 0.00, 0.00, 0.00, 0.00, 0.00, 0.00, 0.00, 0.00, 0
239, -181400.31, -34939.02, 34458.36, 31147.02, -167700.55, -187500.02, -24430.93, 164992.55, 0.00, 0.00, 0.00, 0.00, 0.00, 0.00, 0.00, 0.00, 0
240, -181403.28, -34933.63, 34449.16, 31135.31, -167698.53, -187500.02, -24436.33, 164988.50, 0.00, 0.00, 0.00, 0.00, 0.00, 0.00, 0.00, 0.00, 0
241, -181402.30, -34901.58, 34465.41, 31116.18, -167700.23, -187500.02, -24420.76, 165008.03, 0.00, 0.00, 0.00, 0.00, 0.00, 0.00, 0.00, 0.00, 0
242, -181401.30, -34876.59, 34473.50, 31123.66, -167702.88, -187500.02, -24413.63, 165019.64, 0.00, 0.00, 0.00, 0.00, 0.00, 0.00, 0.00, 0.00, 0
243, -181405.36, -34882.27, 34451.91, 31140.87, -167701.38, -187500.02, -24431.55, 165006.36, 0.00, 0.00, 0.00, 0.00, 0.00, 0.00, 0.00, 0.00, 0
244, -181408.70, -34882.06, 34437.46, 31136.11, -167700.38, -187500.02, -24441.21, 164996.64, 0.00, 0.00, 0.00, 0.00, 0.00, 0.00, 0.00, 0.00, 0
245, -181409.41, -34853.45, 34450.99, 31110.86, -167700.34, -187500.02, -24427.93, 165010.30, 0.00, 0.00, 0.00, 0.00, 0.00, 0.00, 0.00, 0.00, 0
246, -181408.92, -34824.17, 34462.99, 31125.07, -167700.48, -187500.02, -24415.61, 165025.53, 0.00, 0.00, 0.00, 0.00, 0.00, 0.00, 0.00, 0.00, 0
247, -181411.95, -34825.45, 34444.95, 31145.50, -167700.64, -187500.02, -24428.94, 165014.52, 0.00, 0.00, 0.00, 0.00, 0.00, 0.00, 0.00, 0.00, 0
248, -181413.88, -34830.07, 34425.55, 31157.17, -167698.52, -187500.02, -24444.34, 165001.78, 0.00, 0.00, 0.00, 0.00, 0.00, 0.00, 0.00, 0.00, 0
249, -181415.33, -34805.20, 34434.74, 31120.82, -167697.41, -187500.02, -24434.84, 165012.70, 0.00, 0.00, 0.00, 0.00, 0.00, 0.00, 0.00, 0.00, 0
250, -181413.66, -34773.19, 34450.23, 31126.35, -167698.81, -187500.02, -24419.55, 165028.53, 0.00, 0.00, 0.00, 0.00, 0.00, 0.00, 0.00, 0.00, 0
251, -181414.06, -34770.13, 34437.98, 31134.53, -167697.13, -187500.02, -24428.62, 165022.83, 0.00, 0.00, 0.00, 0.00, 0.00, 0.00, 0.00, 0.00, 0
252, -181417.95, -34777.55, 34415.67, 31157.19, -167695.13, -187500.02, -24445.86, 165007.88, 0.00, 0.00, 0.00, 0.00, 0.00, 0.00, 0.00, 0.00, 0
253, -181418.36, -34757.30, 34420.23, 31123.28, -167694.09, -187500.02, -24440.78, 165015.55, 0.00, 0.00, 0.00, 0.00, 0.00, 0.00, 0.00, 0.00, 0
254, -181418.80, -34723.57, 34437.64, 31126.50, -167694.38, -187500.02, -24426.12, 165036.16, 0.00, 0.00, 0.00, 0.00, 0.00, 0.00, 0.00, 0.00, 0
255, -181420.72, -34713.51, 34430.58, 31129.61, -167695.98, -187500.02, -24431.15, 165036.02, 0.00, 0.00, 0.00, 0.00, 0.00, 0.00, 0.00, 0.00, 0
0, -181423.38, -34722.70, 34406.24, 31164.79, -167696.80, -187500.02, -24448.58, 165018.77, 0.00, 0.00, 0.00, 0.00, 0.00, 0.00, 0.00, 0.00, 0
1, -181423.53, -34708.75, 34405.35, 31126.99, -167695.20, -187500.02, -24445.92, 165020.94, 0.00, 0.00, 0.00, 0.00, 0.00, 0.00, 0.00, 0.00, 0
2, -181419.14, -34675.02, 34424.10, 31123.19, -167694.97, -187500.02, -24429.27, 165041.98, 0.00, 0.00, 0.00, 0.00, 0.00, 0.00, 0.00, 0.00, 0
3, -181417.19, -34658.75, 34423.05, 31130.53, -167696.61, -187500.02, -24429.09, 165046.30, 0.00, 0.00, 0.00, 0.00, 0.00, 0.00, 0.00, 0.00, 0
4, -181422.59, -34667.60, 34398.17, 31170.94, -167694.72, -187500.02, -24449.12, 165029.50, 0.00, 0.00, 0.00, 0.00, 0.00, 0.00, 0.00, 0.00, 0
5, -181423.27, -34658.30, 34391.71, 31140.92, -167695.20, -187500.02, -24453.34, 165028.36, 0.00, 0.00, 0.00, 0.00, 0.00, 0.00, 0.00, 0.00, 0
6, -181418.86, -34554.81, 34409.32, 31121.74, -167690.14, -187500.02, -24439.93, 165047.89, 0.00, 0.00, 0.00, 0.00, 0.00, 0.00, 0.00, 0.00, 0
7, -181427.47, -34288.67, 34421.66, 31133.25, -167691.86, -187500.02, -24434.93, 165055.88, 0.00, 0.00, 0.00, 0.00, 0.00, 0.00, 0.00, 0.00, 0
8, -181432.05, -34241.89, 34412.27, 31165.08, -167691.08, -187500.02, -24453.28, 165039.38, 0.00, 0.00, 0.00, 0.00, 0.00, 0.00, 0.00, 0.00, 0
9, -181434.84, -34235.14, 34414.84, 31152.07, -167687.94, -187500.02, -24460.72, 165031.70, 0.00, 0.00, 0.00, 0.00, 0.00, 0.00, 0.00, 0.00, 0
10, -181433.03, -34200.70, 34443.43, 31123.44, -167688.06, -187500.02, -24445.48, 165048.09, 0.00, 0.00, 0.00, 0.00, 0.00, 0.00, 0.00, 0.00, 0
11, -181432.80, -34171.86, 34466.79, 31133.27, -167686.17, -187500.02, -24435.98, 165062.11, 0.00, 0.00, 0.00, 0.00, 0.00, 0.00, 0.00, 0.00, 0
12, -181436.86, -34174.83, 34460.64, 31148.74, -167686.38, -187500.02, -24452.25, 165049.72, 0.00, 0.00, 0.00, 0.00, 0.00, 0.00, 0.00, 0.00, 0
13, -181440.92, -34174.23, 34457.70, 31157.86, -167685.47, -187500.02, -24463.34, 165038.91, 0.00, 0.00, 0.00, 0.00, 0.00, 0.00, 0.00, 0.00, 0
14, -181438.36, -34145.24, 34483.98, 31121.81, -167683.73, -187500.02, -24450.19, 165052.34, 0.00, 0.00, 0.00, 0.00, 0.00, 0.00, 0.00, 0.00, 0
15, -181438.05, -34112.76, 34511.16, 31131.87, -167684.25, -187500.02, -24436.58, 165069.89, 0.00, 0.00, 0.00, 0.00, 0.00, 0.00, 0.00, 0.00, 0
16, -181443.16, -34108.47, 34509.71, 31147.89, -167684.22, -187500.02, -24448.49, 165061.02, 0.00, 0.00, 0.00, 0.00, 0.00, 0.00, 0.00, 0.00, 0
17, -181447.09, -34111.09, 34503.27, 31173.60, -167681.69, -187500.02, -24461.97, 165046.03, 0.00, 0.00, 0.00, 0.00, 0.00, 0.00, 0.00, 0.00, 0
18, -181448.75, -34083.97, 34524.30, 31126.05, -167680.09, -187500.02, -24452.12, 165053.91, 0.00, 0.00, 0.00, 0.00, 0.00, 0.00, 0.00, 0.00, 0
19, -181448.19, -34047.43, 34554.10, 31134.19, -167679.14, -187500.02, -24436.07, 165072.83, 0.00, 0.00, 0.00, 0.00, 0.00, 0.00, 0.00, 0.00, 0
20, -181449.59, -34039.00, 34557.96, 31143.18, -167678.72, -187500.02, -24443.62, 165069.75, 0.00, 0.00, 0.00, 0.00, 0.00, 0.00, 0.00, 0.00, 0
21, -181452.28, -34043.54, 34548.40, 31171.85, -167679.16, -187500.02, -24462.46, 165052.72, 0.00, 0.00, 0.00, 0.00, 0.00, 0.00, 0.00, 0.00, 0
22, -181450.27, -34021.19, 34564.47, 31126.61, -167678.25, -187500.02, -24458.04, 165057.48, 0.00, 0.00, 0.00, 0.00, 0.00, 0.00, 0.00, 0.00, 0
23, -181448.11, -33985.40, 34595.78, 31133.59, -167678.91, -187500.02, -24438.48, 165075.97, 0.00, 0.00, 0.00, 0.00, 0.00, 0.00, 0.00, 0.00, 0
24, -181450.61, -34111.53, 34603.38, 31139.91, -167678.73, -187500.02, -24440.49, 165075.81, 0.00, 0.00, 0.00, 0.00, 0.00, 0.00, 0.00, 0.00, 0
25, -181459.17, -34322.60, 34582.73, 31179.77, -167680.17, -187500.02, -24459.92, 165060.20, 0.00, 0.00, 0.00, 0.00, 0.00, 0.00, 0.00, 0.00, 0
26, -181462.81, -34324.66, 34579.76, 31156.77, -167679.72, -187500.02, -24459.92, 165062.06, 0.00, 0.00, 0.00, 0.00, 0.00, 0.00, 0.00, 0.00, 0
27, -181460.83, -34290.97, 34597.55, 31137.99, -167676.13, -187500.02, -24444.45, 165081.28, 0.00, 0.00, 0.00, 0.00, 0.00, 0.00, 0.00, 0.00, 0
28, -181460.70, -34273.38, 34599.40, 31141.48, -167678.44, -187500.02, -24445.48, 165087.97, 0.00, 0.00, 0.00, 0.00, 0.00, 0.00, 0.00, 0.00, 0
29, -181464.63, -34281.43, 34575.53, 31150.82, -167679.56, -187500.02, -24463.85, 165071.78, 0.00, 0.00, 0.00, 0.00, 0.00, 0.00, 0.00, 0.00, 0
30, -181465.81, -34274.19, 34567.93, 31128.76, -167674.64, -187500.02, -24467.47, 165068.70, 0.00, 0.00, 0.00, 0.00, 0.00, 0.00, 0.00, 0.00, 0
31, -181464.44, -34241.80, 34584.68, 31129.14, -167672.41, -187500.02, -24450.42, 165086.58, 0.00, 0.00, 0.00, 0.00, 0.00, 0.00, 0.00, 0.00, 0
32, -181465.05, -34218.82, 34590.64, 31142.68, -167672.92, -187500.02, -24442.62, 165094.58, 0.00, 0.00, 0.00, 0.00, 0.00, 0.00, 0.00, 0.00, 0
33, -181470.00, -34224.79, 34568.25, 31183.65, -167671.92, -187500.02, -24459.40, 165079.36, 0.00, 0.00, 0.00, 0.00, 0.00, 0.00, 0.00, 0.00, 0
34, -181471.19, -34222.78, 34554.63, 31154.06, -167672.34, -187500.02, -24468.14, 165072.17, 0.00, 0.00, 0.00, 0.00, 0.00, 0.00, 0.00, 0.00, 0
35, -181471.38, -34193.21, 34567.39, 31127.98, -167674.89, -187500.02, -24442.23, 165088.84, 0.00, 0.00, 0.00, 0.00, 0.00, 0.00, 0.00, 0.00, 0
36, -181470.47, -34165.11, 34578.57, 31141.66, -167675.72, -187500.02, -24336.27, 165105.11, 0.00, 0.00, 0.00, 0.00, 0.00, 0.00, 0.00, 0.00, 0
37, -181472.75, -34167.34, 34560.58, 31159.02, -167674.53, -187500.02, -24277.59, 165094.42, 0.00, 0.00, 0.00, 0.00, 0.00, 0.00, 0.00, 0.00, 0
38, -181476.63, -34170.16, 34543.30, 31179.61, -167670.13, -187500.02, -24251.71, 165081.86, 0.00, 0.00, 0.00, 0.00, 0.00, 0.00, 0.00, 0.00, 0
39, -181476.02, -34144.77, 34553.23, 31136.85, -167670.02, -187500.02, -24205.46, 165095.25, 0.00, 0.00, 0.00, 0.00, 0.00, 0.00, 0.00, 0.00, 0
40, -181475.30, -34113.72, 34567.69, 31143.31, -167671.11, -187500.02, -24156.67, 165114.08, 0.00, 0.00, 0.00, 0.00, 0.00, 0.00, 0.00, 0.00, 0
41, -181477.09, -34111.44, 34554.43, 31152.34, -167668.66, -187500.02, -24134.41, 165107.28, 0.00, 0.00, 0.00, 0.00, 0.00, 0.00, 0.00, 0.00, 0
42, -181482.45, -34117.90, 34533.33, 31182.20, -167666.98, -187500.02, -24117.33, 165091.63, 0.00, 0.00, 0.00, 0.00, 0.00, 0.00, 0.00, 0.00, 0
43, -181482.34, -34096.78, 34539.16, 31130.93, -167669.42, -187500.02, -24079.40, 165099.23, 0.00, 0.00, 0.00, 0.00, 0.00, 0.00, 0.00, 0.00, 0
44, -181480.67, -34063.32, 34555.75, 31142.15, -167670.67, -187500.02, -24036.26, 165118.59, 0.00, 0.00, 0.00, 0.00, 0.00, 0.00, 0.00, 0.00, 0
45, -181483.80, -34055.21, 34547.50, 31152.27, -167668.67, -187500.02, -24023.56, 165118.61, 0.00, 0.00, 0.00, 0.00, 0.00, 0.00, 0.00, 0.00, 0
46, -181488.64, -34064.04, 34523.92, 31195.57, -167665.41, -187500.02, -24099.34, 165102.86, 0.00, 0.00, 0.00, 0.00, 0.00, 0.00, 0.00, 0.00, 0
47, -181489.28, -34048.01, 34524.93, 31138.64, -167663.38, -187500.02, -24151.75, 165106.30, 0.00, 0.00, 0.00, 0.00, 0.00, 0.00, 0.00, 0.00, 0
48, -181486.02, -34013.99, 34542.92, 31142.37, -167666.53, -187500.02, -24148.40, 165123.94, 0.00, 0.00, 0.00, 0.00, 0.00, 0.00, 0.00, 0.00, 0
49, -181487.31, -33999.28, 34539.66, 31147.51, -167666.31, -187500.02, -24160.76, 165126.25, 0.00, 0.00, 0.00, 0.00, 0.00, 0.00, 0.00, 0.00, 0
50, -181490.19, -34008.38, 34515.32, 31167.94, -167665.41, -187500.02, -24188.92, 165109.11, 0.00, 0.00, 0.00, 0.00, 0.00, 0.00, 0.00, 0.00, 0
51, -181492.02, -33997.61, 34510.62, 31147.13, -167664.83, -187500.02, -24199.54, 165106.94, 0.00, 0.00, 0.00, 0.00, 0.00, 0.00, 0.00, 0.00, 0
52, -181491.70, -33963.88, 34527.70, 31141.07, -167663.14, -187500.02, -24190.40, 165126.09, 0.00, 0.00, 0.00, 0.00, 0.00, 0.00, 0.00, 0.00, 0
53, -181492.61, -33944.14, 34530.38, 31148.45, -167662.58, -187500.02, -24193.13, 165134.77, 0.00, 0.00, 0.00, 0.00, 0.00, 0.00, 0.00, 0.00, 0
54, -181495.47, -33952.79, 34506.64, 31182.40, -167662.03, -187500.02, -24217.47, 165118.19, 0.00, 0.00, 0.00, 0.00, 0.00, 0.00, 0.00, 0.00, 0
55, -181499.38, -33947.87, 34496.86, 31178.56, -167662.34, -187500.02, -24230.90, 165111.30, 0.00, 0.00, 0.00, 0.00, 0.00, 0.00, 0.00, 0.00, 0
56, -181499.00, -33916.67, 34512.84, 31143.80, -167662.34, -187500.02, -24222.36, 165129.34, 0.00, 0.00, 0.00, 0.00, 0.00, 0.00, 0.00, 0.00, 0
57, -181497.75, -33890.70, 34521.11, 31151.13, -167665.89, -187500.02, -24219.95, 165144.30, 0.00, 0.00, 0.00, 0.00, 0.00, 0.00, 0.00, 0.00, 0
58, -181501.02, -33896.42, 34500.32, 31168.08, -167666.59, -187500.02, -24242.19, 165131.58, 0.00, 0.00, 0.00, 0.00, 0.00, 0.00, 0.00, 0.00, 0
59, -181503.73, -33897.07, 34485.01, 31161.59, -167663.56, -187500.02, -24258.66, 165121.14, 0.00, 0.00, 0.00, 0.00, 0.00, 0.00, 0.00, 0.00, 0
60, -181499.36, -33868.32, 34497.14, 31137.95, -167663.36, -187500.02, -24250.95, 165136.00, 0.00, 0.00, 0.00, 0.00, 0.00, 0.00, 0.00, 0.00, 0
61, -181493.52, -33838.80, 34509.71, 31149.84, -167663.58, -187500.02, -24241.58, 165152.20, 0.00, 0.00, 0.00, 0.00, 0.00, 0.00, 0.00, 0.00, 0
62, -181495.95, -33840.41, 34492.96, 31164.41, -167663.31, -187500.02, -24257.97, 165140.89, 0.00, 0.00, 0.00, 0.00, 0.00, 0.00, 0.00, 0.00, 0
63, -181499.63, -33844.70, 34473.39, 31192.17, -167663.20, -187500.02, -24276.59, 165125.58, 0.00, 0.00, 0.00, 0.00, 0.00, 0.00, 0.00, 0.00, 0
64, -181496.41, -33784.53, 34482.82, 31141.48, -167662.86, -187500.02, -24270.42, 165135.33, 0.00, 0.00, 0.00, 0.00, 0.00, 0.00, 0.00, 0.00, 0
65, -181500.52, -33516.48, 34502.89, 31150.66, -167663.77, -187500.02, -24259.22, 165153.81, 0.00, 0.00, 0.00, 0.00, 0.00, 0.00, 0.00, 0.00, 0
66, -181506.16, -33413.33, 34504.10, 31161.28, -167659.80, -187500.02, -24270.46, 165148.08, 0.00, 0.00, 0.00, 0.00, 0.00, 0.00, 0.00, 0.00, 0
67, -181511.56, -33417.20, 34495.31, 31186.14, -167654.70, -187500.02, -24290.98, 165131.75, 0.00, 0.00, 0.00, 0.00, 0.00, 0.00, 0.00, 0.00, 0
68, -181513.34, -33393.26, 34513.73, 31156.27, -167656.42, -187500.02, -24288.72, 165136.61, 0.00, 0.00, 0.00, 0.00, 0.00, 0.00, 0.00, 0.00, 0
69, -181512.98, -33356.31, 34545.09, 31151.25, -167660.45, -187500.02, -24276.03, 165155.88, 0.00, 0.00, 0.00, 0.00, 0.00, 0.00, 0.00, 0.00, 0
70, -181514.11, -33342.63, 34552.89, 31156.12, -167659.92, -187500.02, -24284.63, 165155.98, 0.00, 0.00, 0.00, 0.00, 0.00, 0.00, 0.00, 0.00, 0
71, -181516.75, -33346.95, 34542.81, 31180.79, -167659.67, -187500.02, -24304.44, 165138.77, 0.00, 0.00, 0.00, 0.00, 0.00, 0.00, 0.00, 0.00, 0
72, -181519.00, -33329.94, 34555.41, 31155.98, -167656.23, -187500.02, -24305.60, 165141.23, 0.00, 0.00, 0.00, 0.00, 0.00, 0.00, 0.00, 0.00, 0
73, -181519.53, -33294.40, 34587.63, 31149.99, -167656.66, -187500.02, -24290.40, 165162.52, 0.00, 0.00, 0.00, 0.00, 0.00, 0.00, 0.00, 0.00, 0
74, -181519.31, -33274.82, 34600.66, 31155.63, -167657.66, -187500.02, -24292.79, 165166.89, 0.00, 0.00, 0.00, 0.00, 0.00, 0.00, 0.00, 0.00, 0
75, -181523.83, -33278.68, 34589.97, 31191.99, -167654.70, -187500.02, -24313.82, 165150.48, 0.00, 0.00, 0.00, 0.00, 0.00, 0.00, 0.00, 0.00, 0
76, -181526.83, -33266.26, 34597.30, 31179.86, -167653.98, -187500.02, -24320.57, 165149.20, 0.00, 0.00, 0.00, 0.00, 0.00, 0.00, 0.00, 0.00, 0
77, -181526.80, -33230.72, 34627.86, 31151.07, -167657.36, -187500.02, -24307.23, 165167.89, 0.00, 0.00, 0.00, 0.00, 0.00, 0.00, 0.00, 0.00, 0
78, -181526.64, -33204.21, 34647.19, 31157.53, -167658.78, -187500.02, -24303.12, 165176.61, 0.00, 0.00, 0.00, 0.00, 0.00, 0.00, 0.00, 0.00, 0
79, -181530.11, -33207.96, 34637.96, 31181.87, -167656.52, -187500.02, -24322.25, 165160.81, 0.00, 0.00, 0.00, 0.00, 0.00, 0.00, 0.00, 0.00, 0
80, -181531.86, -33202.82, 34640.26, 31171.99, -167655.25, -187500.02, -24332.04, 165153.08, 0.00, 0.00, 0.00, 0.00, 0.00, 0.00, 0.00, 0.00, 0
81, -181532.13, -33168.42, 34668.56, 31146.64, -167654.70, -187500.02, -24319.10, 165169.95, 0.00, 0.00, 0.00, 0.00, 0.00, 0.00, 0.00, 0.00, 0
82, -181530.22, -33155.68, 34691.83, 31158.55, -167655.75, -187500.02, -24311.19, 165184.66, 0.00, 0.00, 0.00, 0.00, 0.00, 0.00, 0.00, 0.00, 0
83, -181533.69, -33368.80, 34681.99, 31166.60, -167654.55, -187500.02, -24327.32, 165171.47, 0.00, 0.00, 0.00, 0.00, 0.00, 0.00, 0.00, 0.00, 0
84, -181540.11, -33503.16, 34667.11, 31182.85, -167652.88, -187500.02, -24340.87, 165157.97, 0.00, 0.00, 0.00, 0.00, 0.00, 0.00, 0.00, 0.00, 0
85, -181541.06, -33478.09, 34678.71, 31145.46, -167653.86, -187500.02, -24331.19, 165168.91, 0.00, 0.00, 0.00, 0.00, 0.00, 0.00, 0.00, 0.00, 0
86, -181538.98, -33447.53, 34692.43, 31158.40, -167656.19, -187500.02, -24319.61, 165183.91, 0.00, 0.00, 0.00, 0.00, 0.00, 0.00, 0.00, 0.00, 0
87, -181539.61, -33446.72, 34677.12, 31172.17, -167653.97, -187500.02, -24332.94, 165174.45, 0.00, 0.00, 0.00, 0.00, 0.00, 0.00, 0.00, 0.00, 0
88, -181543.48, -33452.54, 34656.71, 31196.06, -167649.61, -187500.02, -24349.81, 165161.14, 0.00, 0.00, 0.00, 0.00, 0.00, 0.00, 0.00, 0.00, 0
89, -181544.64, -33429.60, 34663.17, 31155.09, -167651.53, -187500.02, -24343.71, 165171.66, 0.00, 0.00, 0.00, 0.00, 0.00, 0.00, 0.00, 0.00, 0
90, -181541.80, -33396.39, 34679.49, 31158.24, -167653.55, -187500.02, -24328.69, 165190.31, 0.00, 0.00, 0.00, 0.00, 0.00, 0.00, 0.00, 0.00, 0
91, -181545.05, -33389.37, 34669.97, 31170.87, -167650.53, -187500.02, -24337.83, 165186.63, 0.00, 0.00, 0.00, 0.00, 0.00, 0.00, 0.00, 0.00, 0
92, -181550.50, -33397.73, 34646.52, 31201.76, -167646.61, -187500.02, -24357.90, 165169.22, 0.00, 0.00, 0.00, 0.00, 0.00, 0.00, 0.00, 0.00, 0
93, -181549.58, -33379.60, 34648.64, 31156.14, -167644.58, -187500.02, -24355.22, 165174.94, 0.00, 0.00, 0.00, 0.00, 0.00, 0.00, 0.00, 0.00, 0
94, -181548.66, -33345.34, 34666.44, 31157.06, -167644.50, -187500.02, -24337.94, 165196.17, 0.00, 0.00, 0.00, 0.00, 0.00, 0.00, 0.00, 0.00, 0
95, -181550.72, -33333.20, 34663.00, 31164.12, -167646.55, -187500.02, -24339.84, 165197.61, 0.00, 0.00, 0.00, 0.00, 0.00, 0.00, 0.00, 0.00, 0
96, -181554.00, -33342.77, 34638.79, 31192.60, -167644.47, -187500.02, -24360.47, 165179.61, 0.00, 0.00, 0.00, 0.00, 0.00, 0.00, 0.00, 0.00, 0
97, -181554.14, -33331.19, 34635.68, 31163.27, -167642.95, -187500.02, -24363.15, 165178.42, 0.00, 0.00, 0.00, 0.00, 0.00, 0.00, 0.00, 0.00, 0
98, -181552.31, -33297.32, 34652.80, 31155.02, -167644.14, -187500.02, -24347.73, 165195.61, 0.00, 0.00, 0.00, 0.00, 0.00, 0.00, 0.00, 0.00, 0
99, -181554.00, -33278.93, 34654.32, 31161.68, -167646.42, -187500.02, -24343.89, 165200.19, 0.00, 0.00, 0.00, 0.00, 0.00, 0.00, 0.00, 0.00, 0
100, -181558.39, -33287.80, 34629.69, 31194.16, -167646.30, -187500.02, -24362.66, 165180.45, 0.00, 0.00, 0.00, 0.00, 0.00, 0.00, 0.00, 0.00, 0
101, -181562.20, -33281.21, 34621.35, 31180.95, -167643.13, -187500.02, -24369.90, 165172.80, 0.00, 0.00, 0.00, 0.00, 0.00, 0.00, 0.00, 0.00, 0
102, -181560.27, -33248.58, 34637.40, 31153.84, -167642.64, -187500.02, -24355.29, 165191.08, 0.00, 0.00, 0.00, 0.00, 0.00, 0.00, 0.00, 0.00, 0
103, -181561.22, -33224.23, 34643.95, 31163.23, -167643.48, -187500.02, -24348.54, 165204.38, 0.00, 0.00, 0.00, 0.00, 0.00, 0.00, 0.00, 0.00, 0
104, -181563.11, -33229.53, 34621.49, 31176.62, -167643.39, -187500.02, -24367.24, 165189.69, 0.00, 0.00, 0.00, 0.00, 0.00, 0.00, 0.00, 0.00, 0
105, -181564.17, -33228.57, 34607.74, 31176.12, -167640.80, -187500.02, -24379.07, 165178.17, 0.00, 0.00, 0.00, 0.00, 0.00, 0.00, 0.00, 0.00, 0
106, -181563.97, -33199.13, 34620.57, 31152.36, -167638.34, -187500.02, -24365.26, 165192.75, 0.00, 0.00, 0.00, 0.00, 0.00, 0.00, 0.00, 0.00, 0
107, -181563.34, -33170.34, 34632.64, 31163.67, -167640.80, -187500.02, -24353.59, 165209.16, 0.00, 0.00, 0.00, 0.00, 0.00, 0.00, 0.00, 0.00, 0
108, -181566.81, -33172.94, 34614.04, 31184.73, -167643.02, -187500.02, -24368.63, 165198.70, 0.00, 0.00, 0.00, 0.00, 0.00, 0.00, 0.00, 0.00, 0
109, -181570.34, -33176.36, 34595.70, 31201.47, -167638.45, -187500.02, -24382.80, 165186.05, 0.00, 0.00, 0.00, 0.00, 0.00, 0.00, 0.00, 0.00, 0
110, -181569.38, -33151.57, 34605.57, 31152.25, -167636.67, -187500.02, -24373.88, 165198.25, 0.00, 0.00, 0.00, 0.00, 0.00, 0.00, 0.00, 0.00, 0
111, -181569.77, -33119.74, 34620.59, 31164.99, -167639.39, -187500.02, -24360.05, 165217.92, 0.00, 0.00, 0.00, 0.00, 0.00, 0.00, 0.00, 0.00, 0
112, -181573.00, -33116.10, 34607.27, 31177.26, -167639.38, -187500.02, -24369.73, 165212.33, 0.00, 0.00, 0.00, 0.00, 0.00, 0.00, 0.00, 0.00, 0
113, -181575.86, -33123.00, 34585.61, 31198.97, -167638.13, -187500.02, -24385.75, 165196.63, 0.00, 0.00, 0.00, 0.00, 0.00, 0.00, 0.00, 0.00, 0
114, -181577.77, -33101.37, 34590.95, 31156.65, -167635.33, -187500.02, -24379.43, 165203.77, 0.00, 0.00, 0.00, 0.00, 0.00, 0.00, 0.00, 0.00, 0
115, -181576.89, -33067.48, 34607.63, 31165.80, -167632.92, -187500.02, -24364.99, 165222.28, 0.00, 0.00, 0.00, 0.00, 0.00, 0.00, 0.00, 0.00, 0
116, -181575.31, -33058.48, 34599.61, 31172.26, -167634.69, -187500.02, -24372.01, 165220.14, 0.00, 0.00, 0.00, 0.00, 0.00, 0.00, 0.00, 0.00, 0
117, -181579.58, -33067.17, 34575.38, 31202.90, -167636.25, -187500.02, -24391.47, 165202.14, 0.00, 0.00, 0.00, 0.00, 0.00, 0.00, 0.00, 0.00, 0
118, -181580.84, -33052.13, 34575.69, 31167.45, -167634.36, -187500.02, -24389.60, 165201.88, 0.00, 0.00, 0.00, 0.00, 0.00, 0.00, 0.00, 0.00, 0
119, -181577.19, -33017.64, 34593.91, 31165.28, -167633.97, -187500.02, -24372.32, 165218.91, 0.00, 0.00, 0.00, 0.00, 0.00, 0.00, 0.00, 0.00, 0
120, -181575.00, -33002.08, 34591.78, 31170.56, -167633.52, -187500.02, -24373.62, 165222.25, 0.00, 0.00, 0.00, 0.00, 0.00, 0.00, 0.00, 0.00, 0
121, -181578.55, -33011.16, 34567.66, 31204.44, -167633.20, -187500.02, -24394.00, 165205.69, 0.00, 0.00, 0.00, 0.00, 0.00, 0.00, 0.00, 0.00, 0
122, -181578.84, -33001.68, 34562.48, 31185.67, -167632.20, -187500.02, -24397.13, 165203.86, 0.00, 0.00, 0.00, 0.00, 0.00, 0.00, 0.00, 0.00, 0
123, -181576.58, -32877.11, 34580.45, 31166.18, -167631.69, -187500.02, -24381.30, 165220.92, 0.00, 0.00, 0.00, 0.00, 0.00, 0.00, 0.00, 0.00, 0
124, -181584.67, -32615.75, 34591.98, 31171.88, -167634.77, -187500.02, -24378.42, 165228.20, 0.00, 0.00, 0.00, 0.00, 0.00, 0.00, 0.00, 0.00, 0
125, -181586.77, -32580.51, 34582.53, 31194.61, -167632.63, -187500.02, -24397.58, 165213.16, 0.00, 0.00, 0.00, 0.00, 0.00, 0.00, 0.00, 0.00, 0
126, -181590.97, -32571.61, 34585.70, 31191.01, -167630.25, -187500.02, -24405.06, 165208.11, 0.00, 0.00, 0.00, 0.00, 0.00, 0.00, 0.00, 0.00, 0
127, -181591.75, -32533.99, 34614.20, 31162.38, -167632.38, -187500.02, -24390.00, 165223.95, 0.00, 0.00, 0.00, 0.00, 0.00, 0.00, 0.00, 0.00, 0
128, -181589.19, -32502.83, 34637.27, 31172.52, -167632.92, -187500.02, -24380.95, 165235.80, 0.00, 0.00, 0.00, 0.00, 0.00, 0.00, 0.00, 0.00, 0
129, -181592.30, -32503.37, 34631.37, 31187.25, -167630.48, -187500.02, -24397.29, 165220.92, 0.00, 0.00, 0.00, 0.00, 0.00, 0.00, 0.00, 0.00, 0
130, -181596.97, -32501.27, 34630.47, 31198.50, -167626.44, -187500.02, -24408.93, 165209.30, 0.00, 0.00, 0.00, 0.00, 0.00, 0.00, 0.00, 0.00, 0
131, -181596.78, -32469.24, 34656.91, 31162.67, -167625.38, -187500.02, -24397.40, 165224.48, 0.00, 0.00, 0.00, 0.00, 0.00, 0.00, 0.00, 0.00, 0
132, -181595.31, -32435.78, 34683.85, 31173.02, -167624.38, -187500.02, -24387.03, 165242.50, 0.00, 0.00, 0.00, 0.00, 0.00, 0.00, 0.00, 0.00, 0
133, -181597.84, -32433.74, 34681.08, 31182.67, -167624.94, -187500.02, -24400.06, 165233.52, 0.00, 0.00, 0.00, 0.00, 0.00, 0.00, 0.00, 0.00, 0
134, -181602.19, -32437.97, 34674.55, 31218.32, -167623.55, -187500.02, -24414.52, 165220.69, 0.00, 0.00, 0.00, 0.00, 0.00, 0.00, 0.00, 0.00, 0
135, -181602.80, -32412.80, 34696.61, 31169.57, -167622.31, -187500.02, -24405.40, 165233.05, 0.00, 0.00, 0.00, 0.00, 0.00, 0.00, 0.00, 0.00, 0
136, -181601.64, -32375.49, 34727.12, 31175.74, -167623.75, -187500.02, -24389.96, 165252.56, 0.00, 0.00, 0.00, 0.00, 0.00, 0.00, 0.00, 0.00, 0
137, -181605.50, -32365.19, 34729.78, 31190.58, -167621.52, -187500.02, -24400.26, 165247.98, 0.00, 0.00, 0.00, 0.00, 0.00, 0.00, 0.00, 0.00, 0
138, -181609.64, -32367.94, 34720.19, 31212.02, -167619.08, -187500.02, -24417.76, 165231.89, 0.00, 0.00, 0.00, 0.00, 0.00, 0.00, 0.00, 0.00, 0
139, -181609.45, -32344.11, 34737.43, 31174.63, -167620.22, -187500.02, -24411.95, 165237.59, 0.00, 0.00, 0.00, 0.00, 0.00, 0.00, 0.00, 0.00, 0
140, -181606.94, -32304.84, 34769.32, 31174.78, -167623.23, -187500.02, -24394.74, 165256.66, 0.00, 0.00, 0.00, 0.00, 0.00, 0.00, 0.00, 0.00, 0
141, -181608.63, -32371.83, 34777.28, 31177.58, -167624.98, -187500.02, -24399.68, 165257.45, 0.00, 0.00, 0.00, 0.00, 0.00, 0.00, 0.00, 0.00, 0
142, -181612.81, -32616.71, 34759.06, 31193.00, -167624.80, -187500.02, -24420.44, 165240.98, 0.00, 0.00, 0.00, 0.00, 0.00, 0.00, 0.00, 0.00, 0
143, -181613.53, -32645.39, 34756.98, 31182.00, -167624.52, -187500.02, -24420.73, 165244.73, 0.00, 0.00, 0.00, 0.00, 0.00, 0.00, 0.00, 0.00, 0
144, -181613.03, -32611.55, 34774.78, 31173.37, -167625.41, -187500.02, -24402.67, 165266.80, 0.00, 0.00, 0.00, 0.00, 0.00, 0.00, 0.00, 0.00, 0
145, -181614.27, -32594.74, 34775.31, 31178.87, -167625.03, -187500.02, -24400.37, 165272.61, 0.00, 0.00, 0.00, 0.00, 0.00, 0.00, 0.00, 0.00, 0
146, -181617.86, -32603.28, 34751.44, 31203.46, -167623.95, -187500.02, -24418.88, 165257.08, 0.00, 0.00, 0.00, 0.00, 0.00, 0.00, 0.00, 0.00, 0
147, -181620.61, -32594.32, 34744.02, 31187.05, -167623.44, -187500.02, -24424.69, 165254.98, 0.00, 0.00, 0.00, 0.00, 0.00, 0.00, 0.00, 0.00, 0
148, -181620.45, -32561.46, 34759.73, 31174.51, -167622.70, -187500.02, -24411.26, 165274.31, 0.00, 0.00, 0.00, 0.00, 0.00, 0.00, 0.00, 0.00, 0
149, -181618.94, -32538.33, 34765.32, 31179.32, -167622.34, -187500.02, -24406.52, 165286.27, 0.00, 0.00, 0.00, 0.00, 0.00, 0.00, 0.00, 0.00, 0
150, -181622.00, -32545.61, 34742.07, 31202.61, -167621.00, -187500.02, -24426.25, 165272.77, 0.00, 0.00, 0.00, 0.00, 0.00, 0.00, 0.00, 0.00, 0
151, -181625.98, -32543.51, 34729.54, 31196.78, -167618.30, -187500.02, -24435.69, 165267.09, 0.00, 0.00, 0.00, 0.00, 0.00, 0.00, 0.00, 0.00, 0
152, -181626.45, -32513.96, 34744.04, 31168.34, -167618.05, -187500.02, -24420.64, 165283.81, 0.00, 0.00, 0.00, 0.00, 0.00, 0.00, 0.00, 0.00, 0
153, -181623.70, -32486.63, 34754.57, 31180.08, -167621.14, -187500.02, -24407.66, 165297.16, 0.00, 0.00, 0.00, 0.00, 0.00, 0.00, 0.00, 0.00, 0
154, -181627.45, -32489.67, 34735.70, 31203.17, -167618.94, -187500.02, -24420.87, 165284.34, 0.00, 0.00, 0.00, 0.00, 0.00, 0.00, 0.00, 0.00, 0
155, -181632.30, -32491.75, 34718.81, 31217.54, -167616.59, -187500.02, -24433.18, 165270.83, 0.00, 0.00, 0.00, 0.00, 0.00, 0.00, 0.00, 0.00, 0
156, -181632.08, -32464.72, 34729.29, 31179.34, -167616.02, -187500.02, -24423.62, 165282.52, 0.00, 0.00, 0.00, 0.00, 0.00, 0.00, 0.00, 0.00, 0
157, -181630.34, -32433.56, 34742.90, 31181.53, -167618.45, -187500.02, -24411.59, 165301.83, 0.00, 0.00, 0.00, 0.00, 0.00, 0.00, 0.00, 0.00, 0
158, -181633.94, -32431.78, 34728.30, 31187.75, -167616.84, -187500.02, -24423.95, 165293.42, 0.00, 0.00, 0.00, 0.00, 0.00, 0.00, 0.00, 0.00, 0
159, -181637.36, -32438.57, 34706.76, 31206.01, -167612.53, -187500.02, -24440.00, 165277.69, 0.00, 0.00, 0.00, 0.00, 0.00, 0.00, 0.00, 0.00, 0
160, -181639.23, -32416.67, 34713.53, 31172.26, -167610.58, -187500.02, -24432.06, 165286.20, 0.00, 0.00, 0.00, 0.00, 0.00, 0.00, 0.00, 0.00, 0
161, -181637.83, -32383.03, 34730.25, 31181.22, -167615.02, -187500.02, -24415.97, 165304.94, 0.00, 0.00, 0.00, 0.00, 0.00, 0.00, 0.00, 0.00, 0
162, -181637.48, -32374.91, 34720.62, 31189.27, -167615.55, -187500.02, -24421.00, 165300.75, 0.00, 0.00, 0.00, 0.00, 0.00, 0.00, 0.00, 0.00, 0
163, -181641.20, -32383.79, 34696.30, 31219.02, -167613.27, -187500.02, -24438.97, 165284.13, 0.00, 0.00, 0.00, 0.00, 0.00, 0.00, 0.00, 0.00, 0
164, -181645.06, -32366.98, 34698.31, 31191.66, -167612.17, -187500.02, -24436.02, 165288.02, 0.00, 0.00, 0.00, 0.00, 0.00, 0.00, 0.00, 0.00, 0
165, -181644.03, -32331.73, 34716.88, 31184.21, -167614.05, -187500.02, -24418.99, 165307.19, 0.00, 0.00, 0.00, 0.00, 0.00, 0.00, 0.00, 0.00, 0
166, -181645.72, -32317.96, 34713.42, 31192.22, -167612.48, -187500.02, -24420.64, 165308.67, 0.00, 0.00, 0.00, 0.00, 0.00, 0.00, 0.00, 0.00, 0
167, -181648.75, -32327.57, 34688.83, 31219.73, -167608.69, -187500.02, -24439.29, 165292.11, 0.00, 0.00, 0.00, 0.00, 0.00, 0.00, 0.00, 0.00, 0
168, -181649.53, -32316.58, 34684.39, 31182.43, -167608.75, -187500.02, -24441.65, 165292.28, 0.00, 0.00, 0.00, 0.00, 0.00, 0.00, 0.00, 0.00, 0
169, -181649.78, -32282.82, 34701.68, 31182.63, -167609.33, -187500.02, -24425.99, 165312.22, 0.00, 0.00, 0.00, 0.00, 0.00, 0.00, 0.00, 0.00, 0
170, -181649.73, -32263.71, 34704.57, 31187.63, -167610.45, -187500.02, -24421.34, 165320.33, 0.00, 0.00, 0.00, 0.00, 0.00, 0.00, 0.00, 0.00, 0
171, -181652.75, -32271.78, 34680.81, 31213.94, -167607.33, -187500.02, -24439.89, 165303.30, 0.00, 0.00, 0.00, 0.00, 0.00, 0.00, 0.00, 0.00, 0
172, -181655.86, -32266.35, 34670.82, 31206.03, -167605.27, -187500.02, -24447.69, 165295.89, 0.00, 0.00, 0.00, 0.00, 0.00, 0.00, 0.00, 0.00, 0
173, -181654.66, -32234.86, 34686.69, 31188.93, -167607.19, -187500.02, -24432.85, 165312.00, 0.00, 0.00, 0.00, 0.00, 0.00, 0.00, 0.00, 0.00, 0
174, -181653.61, -32210.14, 34694.18, 31190.32, -167606.30, -187500.02, -24424.73, 165324.78, 0.00, 0.00, 0.00, 0.00, 0.00, 0.00, 0.00, 0.00, 0
175, -181657.03, -32215.26, 34672.56, 31206.01, -167605.98, -187500.02, -24438.88, 165312.58, 0.00, 0.00, 0.00, 0.00, 0.00, 0.00, 0.00, 0.00, 0
176, -181659.97, -32214.61, 34657.70, 31205.29, -167605.75, -187500.02, -24447.94, 165302.77, 0.00, 0.00, 0.00, 0.00, 0.00, 0.00, 0.00, 0.00, 0
177, -181656.13, -32185.73, 34671.04, 31175.94, -167609.02, -187500.02, -24435.20, 165316.33, 0.00, 0.00, 0.00, 0.00, 0.00, 0.00, 0.00, 0.00, 0
178, -181651.73, -32155.87, 34683.74, 31190.72, -167610.19, -187500.02, -24425.14, 165330.73, 0.00, 0.00, 0.00, 0.00, 0.00, 0.00, 0.00, 0.00, 0
179, -181652.69, -32156.83, 34665.41, 31200.33, -167609.88, -187500.02, -24439.64, 165321.03, 0.00, 0.00, 0.00, 0.00, 0.00, 0.00, 0.00, 0.00, 0
180, -181657.47, -32160.72, 34646.01, 31229.57, -167605.16, -187500.02, -24455.27, 165308.33, 0.00, 0.00, 0.00, 0.00, 0.00, 0.00, 0.00, 0.00, 0
181, -181655.89, -32070.86, 34656.42, 31189.62, -167604.94, -187500.02, -24446.73, 165320.36, 0.00, 0.00, 0.00, 0.00, 0.00, 0.00, 0.00, 0.00, 0
182, -181660.83, -31793.81, 34679.20, 31192.39, -167606.52, -187500.02, -24430.52, 165340.41, 0.00, 0.00, 0.00, 0.00, 0.00, 0.00, 0.00, 0.00, 0
183, -181665.05, -31729.15, 34679.73, 31192.84, -167606.50, -187500.02, -24439.42, 165336.55, 0.00, 0.00, 0.00, 0.00, 0.00, 0.00, 0.00, 0.00, 0
184, -181668.83, -31732.41, 34671.33, 31222.57, -167605.41, -187500.02, -24456.96, 165320.52, 0.00, 0.00, 0.00, 0.00, 0.00, 0.00, 0.00, 0.00, 0
185, -181671.00, -31707.42, 34689.82, 31195.41, -167601.69, -187500.02, -24451.62, 165327.94, 0.00, 0.00, 0.00, 0.00, 0.00, 0.00, 0.00, 0.00, 0
186, -181668.22, -31666.34, 34720.93, 31194.23, -167601.42, -187500.02, -24434.88, 165348.95, 0.00, 0.00, 0.00, 0.00, 0.00, 0.00, 0.00, 0.00, 0
187, -181669.73, -31650.85, 34727.64, 31195.43, -167602.36, -187500.02, -24439.44, 165347.27, 0.00, 0.00, 0.00, 0.00, 0.00, 0.00, 0.00, 0.00, 0
188, -181673.56, -31656.86, 34716.80, 31224.31, -167599.13, -187500.02, -24460.99, 165328.67, 0.00, 0.00, 0.00, 0.00, 0.00, 0.00, 0.00, 0.00, 0
189, -181676.78, -31638.89, 34730.92, 31201.51, -167597.20, -187500.02, -24460.88, 165331.75, 0.00, 0.00, 0.00, 0.00, 0.00, 0.00, 0.00, 0.00, 0
190, -181678.02, -31600.72, 34763.46, 31193.22, -167601.72, -187500.02, -24443.13, 165352.41, 0.00, 0.00, 0.00, 0.00, 0.00, 0.00, 0.00, 0.00, 0
191, -181678.23, -31580.51, 34777.08, 31201.36, -167601.00, -187500.02, -24442.62, 165356.39, 0.00, 0.00, 0.00, 0.00, 0.00, 0.00, 0.00, 0.00, 0
192, -181681.14, -31585.34, 34766.26, 31239.18, -167598.20, -187500.02, -24462.22, 165340.11, 0.00, 0.00, 0.00, 0.00, 0.00, 0.00, 0.00, 0.00, 0
193, -181682.30, -31571.37, 34774.69, 31201.04, -167596.39, -187500.02, -24464.90, 165339.20, 0.00, 0.00, 0.00, 0.00, 0.00, 0.00, 0.00, 0.00, 0
194, -181682.13, -31531.18, 34806.27, 31190.67, -167595.50, -187500.02, -24448.09, 165357.50, 0.00, 0.00, 0.00, 0.00, 0.00, 0.00, 0.00, 0.00, 0
195, -181681.13, -31502.75, 34824.82, 31199.28, -167597.64, -187500.02, -24443.80, 165366.98, 0.00, 0.00, 0.00, 0.00, 0.00, 0.00, 0.00, 0.00, 0
196, -181684.36, -31504.80, 34815.25, 31224.65, -167595.59, -187500.02, -24460.88, 165351.52, 0.00, 0.00, 0.00, 0.00, 0.00, 0.00, 0.00, 0.00, 0
197, -181687.44, -31495.33, 34817.47, 31213.63, -167592.91, -187500.02, -24467.25, 165345.33, 0.00, 0.00, 0.00, 0.00, 0.00, 0.00, 0.00, 0.00, 0
198, -181686.73, -31457.60, 34847.38, 31187.01, -167595.09, -187500.02, -24453.25, 165360.86, 0.00, 0.00, 0.00, 0.00, 0.00, 0.00, 0.00, 0.00, 0
199, -181683.17, -31445.73, 34871.54, 31199.37, -167596.97, -187500.02, -24443.80, 165374.14, 0.00, 0.00, 0.00, 0.00, 0.00, 0.00, 0.00, 0.00, 0
200, -181690.28, -31662.63, 34861.88, 31222.84, -167595.98, -187500.02, -24457.03, 165361.19, 0.00, 0.00, 0.00, 0.00, 0.00, 0.00, 0.00, 0.00, 0
201, -181696.03, -31788.45, 34847.20, 31228.25, -167593.44, -187500.02, -24468.07, 165350.42, 0.00, 0.00, 0.00, 0.00, 0.00, 0.00, 0.00, 0.00, 0
202, -181695.80, -31761.89, 34858.39, 31193.11, -167593.19, -187500.02, -24456.70, 165363.25, 0.00, 0.00, 0.00, 0.00, 0.00, 0.00, 0.00, 0.00, 0
203, -181694.22, -31731.18, 34871.65, 31200.42, -167593.80, -187500.02, -24444.25, 165380.84, 0.00, 0.00, 0.00, 0.00, 0.00, 0.00, 0.00, 0.00, 0
204, -181695.67, -31731.03, 34855.91, 31206.70, -167592.72, -187500.02, -24455.56, 165372.14, 0.00, 0.00, 0.00, 0.00, 0.00, 0.00, 0.00, 0.00, 0
205, -181698.27, -31735.45, 34834.84, 31231.09, -167587.94, -187500.02, -24470.55, 165358.56, 0.00, 0.00, 0.00, 0.00, 0.00, 0.00, 0.00, 0.00, 0
206, -181699.69, -31712.72, 34842.46, 31197.02, -167588.23, -187500.02, -24462.89, 165369.00, 0.00, 0.00, 0.00, 0.00, 0.00, 0.00, 0.00, 0.00, 0
207, -181697.45, -31679.55, 34859.04, 31199.66, -167588.36, -187500.02, -24447.87, 165387.59, 0.00, 0.00, 0.00, 0.00, 0.00, 0.00, 0.00, 0.00, 0
208, -181699.06, -31673.36, 34849.41, 31210.05, -167587.55, -187500.02, -24454.98, 165383.34, 0.00, 0.00, 0.00, 0.00, 0.00, 0.00, 0.00, 0.00, 0
209, -181705.30, -31681.81, 34825.27, 31244.74, -167584.14, -187500.02, -24473.39, 165367.00, 0.00, 0.00, 0.00, 0.00, 0.00, 0.00, 0.00, 0.00, 0
210, -181703.52, -31663.81, 34827.53, 31196.42, -167580.92, -187500.02, -24471.22, 165372.30, 0.00, 0.00, 0.00, 0.00, 0.00, 0.00, 0.00, 0.00, 0
211, -181703.41, -31629.44, 34845.14, 31198.94, -167583.52, -187500.02, -24453.19, 165392.02, 0.00, 0.00, 0.00, 0.00, 0.00, 0.00, 0.00, 0.00, 0
212, -181704.00, -31617.53, 34840.58, 31205.18, -167585.55, -187500.02, -24452.90, 165393.77, 0.00, 0.00, 0.00, 0.00, 0.00, 0.00, 0.00, 0.00, 0
213, -181709.19, -31626.09, 34815.63, 31232.63, -167581.14, -187500.02, -24472.88, 165377.36, 0.00, 0.00, 0.00, 0.00, 0.00, 0.00, 0.00, 0.00, 0
214, -181709.97, -31613.99, 34812.64, 31192.04, -167578.75, -187500.02, -24475.38, 165377.48, 0.00, 0.00, 0.00, 0.00, 0.00, 0.00, 0.00, 0.00, 0
215, -181710.00, -31580.26, 34830.97, 31195.59, -167580.13, -187500.02, -24459.45, 165396.08, 0.00, 0.00, 0.00, 0.00, 0.00, 0.00, 0.00, 0.00, 0
216, -181707.20, -31561.11, 34832.15, 31203.95, -167582.58, -187500.02, -24457.14, 165402.55, 0.00, 0.00, 0.00, 0.00, 0.00, 0.00, 0.00, 0.00, 0
217, -181711.05, -31569.22, 34807.75, 31235.22, -167578.67, -187500.02, -24474.18, 165386.78, 0.00, 0.00, 0.00, 0.00, 0.00, 0.00, 0.00, 0.00, 0
218, -181716.45, -31562.58, 34799.36, 31221.23, -167577.11, -187500.02, -24478.71, 165385.63, 0.00, 0.00, 0.00, 0.00, 0.00, 0.00, 0.00, 0.00, 0
219, -181717.03, -31530.13, 34816.35, 31198.94, -167579.19, -187500.02, -24463.76, 165404.53, 0.00, 0.00, 0.00, 0.00, 0.00, 0.00, 0.00, 0.00, 0
220, -181713.95, -31505.90, 34823.77, 31205.61, -167581.55, -187500.02, -24456.18, 165415.22, 0.00, 0.00, 0.00, 0.00, 0.00, 0.00, 0.00, 0.00, 0
221, -181718.58, -31511.60, 34801.20, 31223.55, -167579.20, -187500.02, -24474.15, 165399.17, 0.00, 0.00, 0.00, 0.00, 0.00, 0.00, 0.00, 0.00, 0
222, -181721.05, -31510.75, 34787.70, 31216.85, -167577.44, -187500.02, -24485.04, 165390.30, 0.00, 0.00, 0.00, 0.00, 0.00, 0.00, 0.00, 0.00, 0
223, -181719.31, -31481.36, 34801.96, 31191.86, -167579.22, -187500.02, -24471.16, 165406.55, 0.00, 0.00, 0.00, 0.00, 0.00, 0.00, 0.00, 0.00, 0
224, -181717.83, -31453.42, 34812.93, 31205.87, -167580.00, -187500.02, -24458.55, 165421.92, 0.00, 0.00, 0.00, 0.00, 0.00, 0.00, 0.00, 0.00, 0
225, -181722.45, -31455.54, 34793.64, 31213.96, -167580.03, -187500.02, -24471.11, 165413.00, 0.00, 0.00, 0.00, 0.00, 0.00, 0.00, 0.00, 0.00, 0
226, -181726.20, -31458.11, 34776.00, 31224.07, -167577.73, -187500.02, -24485.46, 165401.97, 0.00, 0.00, 0.00, 0.00, 0.00, 0.00, 0.00, 0.00, 0
227, -181725.23, -31431.94, 34786.93, 31192.24, -167574.36, -187500.02, -24475.18, 165414.59, 0.00, 0.00, 0.00, 0.00, 0.00, 0.00, 0.00, 0.00, 0
228, -181723.61, -31400.15, 34801.98, 31203.75, -167575.31, -187500.02, -24462.02, 165431.48, 0.00, 0.00, 0.00, 0.00, 0.00, 0.00, 0.00, 0.00, 0
229, -181728.28, -31397.38, 34788.07, 31213.07, -167576.83, -187500.02, -24472.14, 165424.14, 0.00, 0.00, 0.00, 0.00, 0.00, 0.00, 0.00, 0.00, 0
230, -181731.72, -31403.66, 34766.04, 31226.08, -167576.97, -187500.02, -24487.97, 165408.11, 0.00, 0.00, 0.00, 0.00, 0.00, 0.00, 0.00, 0.00, 0
231, -181732.84, -31382.38, 34771.78, 31196.28, -167573.92, -187500.02, -24479.54, 165415.63, 0.00, 0.00, 0.00, 0.00, 0.00, 0.00, 0.00, 0.00, 0
232, -181730.42, -31348.28, 34788.84, 31204.11, -167576.09, -187500.02, -24463.11, 165436.70, 0.00, 0.00, 0.00, 0.00, 0.00, 0.00, 0.00, 0.00, 0
233, -181729.48, -31339.16, 34780.34, 31206.14, -167576.05, -187500.02, -24468.57, 165436.70, 0.00, 0.00, 0.00, 0.00, 0.00, 0.00, 0.00, 0.00, 0
234, -181733.78, -31349.21, 34533.18, 31251.22, -167571.20, -187500.02, -24486.92, 165420.25, 0.00, 0.00, 0.00, 0.00, 0.00, 0.00, 0.00, 0.00, 0
235, -181734.56, -31341.62, 33906.50, 31240.88, -167567.94, -187500.02, -24485.53, 165423.89, 0.00, 0.00, 0.00, 0.00, 0.00, 0.00, 0.00, 0.00, 0
236, -181733.11, -31320.69, 33833.70, 31206.19, -167569.25, -187500.02, -24469.84, 165441.91, 0.00, 0.00, 0.00, 0.00, 0.00, 0.00, 0.00, 0.00, 0
237, -181733.42, -31320.92, 33853.04, 31215.13, -167572.16, -187500.02, -24471.40, 165442.98, 0.00, 0.00, 0.00, 0.00, 0.00, 0.00, 0.00, 0.00, 0
238, -181738.61, -31345.06, 33849.21, 31274.07, -167571.09, -187500.02, -24489.69, 165426.03, 0.00, 0.00, 0.00, 0.00, 0.00, 0.00, 0.00, 0.00, 0
239, -181741.14, -31349.26, 33866.07, 31247.87, -167569.50, -187500.02, -24490.47, 165425.61, 0.00, 0.00, 0.00, 0.00, 0.00, 0.00, 0.00, 0.00, 0
240, -181736.59, -31330.44, 33906.57, 31204.91, -167569.75, -187500.02, -24473.44, 165444.64, 0.00, 0.00, 0.00, 0.00, 0.00, 0.00, 0.00, 0.00, 0
241, -181735.28, -31325.39, 33934.17, 31210.37, -167571.31, -187500.02, -24470.13, 165452.17, 0.00, 0.00, 0.00, 0.00, 0.00, 0.00, 0.00, 0.00, 0
242, -181741.05, -31348.21, 33934.24, 31238.64, -167568.98, -187500.02, -24488.26, 165435.41, 0.00, 0.00, 0.00, 0.00, 0.00, 0.00, 0.00, 0.00, 0
243, -181744.47, -31357.73, 33947.52, 31235.04, -167566.75, -187500.02, -24492.84, 165429.09, 0.00, 0.00, 0.00, 0.00, 0.00, 0.00, 0.00, 0.00, 0
244, -181741.06, -31340.83, 33988.38, 31203.73, -167568.56, -187500.02, -24478.38, 165447.22, 0.00, 0.00, 0.00, 0.00, 0.00, 0.00, 0.00, 0.00, 0
245, -181737.47, -31329.81, 34022.64, 31212.78, -167567.56, -187500.02, -24469.59, 165459.91, 0.00, 0.00, 0.00, 0.00, 0.00, 0.00, 0.00, 0.00, 0
246, -181744.06, -31348.46, 34027.00, 31231.91, -167565.36, -187500.02, -24485.53, 165445.69, 0.00, 0.00, 0.00, 0.00, 0.00, 0.00, 0.00, 0.00, 0
247, -181748.47, -31363.12, 34034.78, 31252.59, -167565.45, -187500.02, -24496.71, 165435.67, 0.00, 0.00, 0.00, 0.00, 0.00, 0.00, 0.00, 0.00, 0
248, -181746.36, -31349.53, 34071.75, 31211.13, -167568.36, -187500.02, -24483.68, 165449.48, 0.00, 0.00, 0.00, 0.00, 0.00, 0.00, 0.00, 0.00, 0
249, -181742.94, -31334.69, 34109.30, 31214.28, -167570.36, -187500.02, -24470.51, 165465.48, 0.00, 0.00, 0.00, 0.00, 0.00, 0.00, 0.00, 0.00, 0
250, -181744.91, -31350.49, 34118.39, 31217.85, -167570.19, -187500.02, -24482.40, 165453.86, 0.00, 0.00, 0.00, 0.00, 0.00, 0.00, 0.00, 0.00, 0
251, -181750.72, -31369.24, 34124.43, 31251.78, -167566.59, -187500.02, -24498.14, 165440.36, 0.00, 0.00, 0.00, 0.00, 0.00, 0.00, 0.00, 0.00, 0
252, -181749.69, -31359.29, 34157.69, 31214.79, -167565.13, -187500.02, -24489.60, 165452.66, 0.00, 0.00, 0.00, 0.00, 0.00, 0.00, 0.00, 0.00, 0
253, -181744.31, -31341.53, 34199.49, 31212.87, -167564.89, -187500.02, -24473.44, 165472.69, 0.00, 0.00, 0.00, 0.00, 0.00, 0.00, 0.00, 0.00, 0
254, -181748.38, -31351.83, 34215.67, 31227.20, -167564.73, -187500.02, -24481.04, 165466.88, 0.00, 0.00, 0.00, 0.00, 0.00, 0.00, 0.00, 0.00, 0
255, -181755.58, -31373.38, 34219.78, 31260.05, -167563.17, -187500.02, -24498.38, 165450.72, 0.00, 0.00, 0.00, 0.00, 0.00, 0.00, 0.00, 0.00, 0
0, -181753.81, -31367.92, 34315.87, 31216.29, -167561.25, -187500.02, -24493.20, 165458.72, 0.00, 0.00, 0.00, 0.00, 0.00, 0.00, 0.00, 0.00, 0
1, -181746.97, -31343.00, 34947.73, 31211.44, -167561.64, -187500.02, -24477.78, 165480.17, 0.00, 0.00, 0.00, 0.00, 0.00, 0.00, 0.00, 0.00, 0
2, -181745.36, -31333.66, 35263.34, 31219.89, -167560.27, -187500.02, -24483.34, 165480.39, 0.00, 0.00, 0.00, 0.00, 0.00, 0.00, 0.00, 0.00, 0
3, -181749.77, -31333.66, 35246.13, 31249.03, -167556.77, -187500.02, -24502.52, 165461.47, 0.00, 0.00, 0.00, 0.00, 0.00, 0.00, 0.00, 0.00, 0
4, -181759.39, -31138.71, 35251.36, 31212.60, -167552.97, -187500.02, -24502.85, 165462.66, 0.00, 0.00, 0.00, 0.00, 0.00, 0.00, 0.00, 0.00, 0
5, -181765.52, -30929.81, 35285.11, 31210.57, -167555.13, -187500.02, -24486.60, 165481.48, 0.00, 0.00, 0.00, 0.00, 0.00, 0.00, 0.00, 0.00, 0
6, -181765.55, -30900.30, 35303.62, 31217.36, -167557.25, -187500.02, -24483.85, 165485.97, 0.00, 0.00, 0.00, 0.00, 0.00, 0.00, 0.00, 0.00, 0
7, -181768.47, -30902.34, 35297.18, 31246.75, -167558.33, -187500.02, -24501.51, 165469.67, 0.00, 0.00, 0.00, 0.00, 0.00, 0.00, 0.00, 0.00, 0
8, -181771.88, -30886.96, 35308.29, 31226.97, -167559.13, -187500.02, -24504.66, 165467.02, 0.00, 0.00, 0.00, 0.00, 0.00, 0.00, 0.00, 0.00, 0
9, -181770.53, -30845.79, 35342.24, 31209.31, -167559.59, -187500.02, -24487.52, 165488.02, 0.00, 0.00, 0.00, 0.00, 0.00, 0.00, 0.00, 0.00, 0
10, -181772.61, -30814.76, 35364.84, 31220.20, -167559.41, -187500.02, -24481.69, 165499.38, 0.00, 0.00, 0.00, 0.00, 0.00, 0.00, 0.00, 0.00, 0
11, -181777.41, -30815.39, 35358.76, 31249.66, -167556.03, -187500.02, -24500.24, 165483.45, 0.00, 0.00, 0.00, 0.00, 0.00, 0.00, 0.00, 0.00, 0
12, -181780.05, -30805.11, 35363.45, 31241.43, -167552.02, -187500.02, -24508.46, 165476.50, 0.00, 0.00, 0.00, 0.00, 0.00, 0.00, 0.00, 0.00, 0
13, -181780.00, -30768.45, 35394.41, 31213.32, -167552.38, -187500.02, -24493.02, 165492.83, 0.00, 0.00, 0.00, 0.00, 0.00, 0.00, 0.00, 0.00, 0
14, -181776.45, -30734.74, 35420.68, 31221.72, -167554.19, -187500.02, -24481.84, 165505.66, 0.00, 0.00, 0.00, 0.00, 0.00, 0.00, 0.00, 0.00, 0
15, -181781.28, -30731.72, 35417.30, 31237.08, -167555.23, -187500.02, -24495.52, 165491.70, 0.00, 0.00, 0.00, 0.00, 0.00, 0.00, 0.00, 0.00, 0
16, -181784.47, -30726.65, 35417.10, 31246.26, -167551.95, -187500.02, -24507.17, 165480.47, 0.00, 0.00, 0.00, 0.00, 0.00, 0.00, 0.00, 0.00, 0
17, -181784.31, -30692.72, 35445.04, 31214.34, -167550.70, -187500.02, -24496.37, 165492.41, 0.00, 0.00, 0.00, 0.00, 0.00, 0.00, 0.00, 0.00, 0
18, -181780.89, -30655.17, 35475.59, 31222.44, -167552.61, -187500.02, -24483.92, 165509.28, 0.00, 0.00, 0.00, 0.00, 0.00, 0.00, 0.00, 0.00, 0
19, -181782.78, -30648.93, 35476.84, 31230.55, -167551.73, -187500.02, -24494.65, 165501.77, 0.00, 0.00, 0.00, 0.00, 0.00, 0.00, 0.00, 0.00, 0
20, -181788.16, -30651.44, 35471.90, 31265.20, -167549.31, -187500.02, -24510.03, 165487.58, 0.00, 0.00, 0.00, 0.00, 0.00, 0.00, 0.00, 0.00, 0
21, -181789.80, -30624.28, 35494.19, 31217.41, -167548.06, -187500.02, -24502.79, 165497.70, 0.00, 0.00, 0.00, 0.00, 0.00, 0.00, 0.00, 0.00, 0
22, -181786.64, -30586.17, 35525.82, 31222.50, -167548.00, -187500.02, -24444.18, 165514.73, 0.00, 0.00, 0.00, 0.00, 0.00, 0.00, 0.00, 0.00, 0
23, -181788.34, -30686.87, 35530.20, 31226.93, -167545.00, -187500.02, -24345.97, 165508.89, 0.00, 0.00, 0.00, 0.00, 0.00, 0.00, 0.00, 0.00, 0
24, -181794.73, -30917.85, 35513.34, 31265.48, -167545.41, -187500.02, -24315.19, 165493.67, 0.00, 0.00, 0.00, 0.00, 0.00, 0.00, 0.00, 0.00, 0
25, -181797.03, -30926.92, 35516.79, 31216.51, -167547.31, -187500.02, -24274.93, 165501.23, 0.00, 0.00, 0.00, 0.00, 0.00, 0.00, 0.00, 0.00, 0
26, -181795.27, -30892.14, 35535.63, 31221.38, -167547.42, -187500.02, -24222.74, 165521.53, 0.00, 0.00, 0.00, 0.00, 0.00, 0.00, 0.00, 0.00, 0
27, -181796.03, -30878.62, 35532.52, 31228.31, -167545.34, -187500.02, -24191.07, 165524.91, 0.00, 0.00, 0.00, 0.00, 0.00, 0.00, 0.00, 0.00, 0
28, -181800.83, -30887.52, 35508.36, 31265.13, -167543.91, -187500.02, -24178.31, 165507.52, 0.00, 0.00, 0.00, 0.00, 0.00, 0.00, 0.00, 0.00, 0
29, -181802.06, -30875.22, 35505.92, 31231.55, -167545.39, -187500.02, -24148.40, 165505.56, 0.00, 0.00, 0.00, 0.00, 0.00, 0.00, 0.00, 0.00, 0
30, -181801.91, -30840.94, 35524.54, 31220.20, -167549.05, -187500.02, -24102.71, 165525.34, 0.00, 0.00, 0.00, 0.00, 0.00, 0.00, 0.00, 0.00, 0
31, -181801.69, -30821.74, 35527.40, 31225.03, -167550.70, -187500.02, -24073.43, 165531.84, 0.00, 0.00, 0.00, 0.00, 0.00, 0.00, 0.00, 0.00, 0
32, -181806.20, -30829.58, 35504.20, 31256.07, -167548.67, -187500.02, -24111.72, 165514.53, 0.00, 0.00, 0.00, 0.00, 0.00, 0.00, 0.00, 0.00, 0
33, -181809.80, -30823.46, 35496.54, 31237.54, -167545.34, -187500.02, -24191.78, 165510.23, 0.00, 0.00, 0.00, 0.00, 0.00, 0.00, 0.00, 0.00, 0
34, -181807.63, -30790.80, 35513.88, 31215.64, -167546.53, -187500.02, -24197.46, 165529.19, 0.00, 0.00, 0.00, 0.00, 0.00, 0.00, 0.00, 0.00, 0
35, -181806.52, -30765.79, 35521.30, 31226.19, -167549.16, -187500.02, -24202.89, 165542.53, 0.00, 0.00, 0.00, 0.00, 0.00, 0.00, 0.00, 0.00, 0
36, -181808.88, -30771.78, 35499.73, 31244.85, -167547.31, -187500.02, -24229.78, 165529.17, 0.00, 0.00, 0.00, 0.00, 0.00, 0.00, 0.00, 0.00, 0
37, -181811.30, -30771.40, 35486.07, 31239.24, -167542.44, -187500.02, -24249.27, 165520.42, 0.00, 0.00, 0.00, 0.00, 0.00, 0.00, 0.00, 0.00, 0
38, -181811.03, -30742.61, 35499.66, 31213.88, -167542.08, -187500.02, -24244.76, 165537.80, 0.00, 0.00, 0.00, 0.00, 0.00, 0.00, 0.00, 0.00, 0
39, -181811.00, -30712.79, 35511.24, 31228.54, -167542.77, -187500.02, -24241.47, 165555.56, 0.00, 0.00, 0.00, 0.00, 0.00, 0.00, 0.00, 0.00, 0
40, -181813.36, -30714.07, 35493.68, 31249.12, -167542.45, -187500.02, -24261.34, 165546.41, 0.00, 0.00, 0.00, 0.00, 0.00, 0.00, 0.00, 0.00, 0
41, -181818.41, -30717.55, 35475.73, 31265.04, -167540.09, -187500.02, -24280.45, 165534.63, 0.00, 0.00, 0.00, 0.00, 0.00, 0.00, 0.00, 0.00, 0
42, -181819.13, -30691.89, 35485.74, 31223.15, -167541.45, -187500.02, -24276.72, 165545.38, 0.00, 0.00, 0.00, 0.00, 0.00, 0.00, 0.00, 0.00, 0
43, -181818.58, -30659.51, 35500.74, 31231.26, -167541.56, -187500.02, -24269.99, 165559.97, 0.00, 0.00, 0.00, 0.00, 0.00, 0.00, 0.00, 0.00, 0
44, -181820.44, -30655.95, 35487.82, 31241.21, -167542.81, -187500.02, -24286.76, 165552.03, 0.00, 0.00, 0.00, 0.00, 0.00, 0.00, 0.00, 0.00, 0
45, -181825.27, -30662.95, 35465.58, 31267.61, -167538.02, -187500.02, -24308.24, 165537.75, 0.00, 0.00, 0.00, 0.00, 0.00, 0.00, 0.00, 0.00, 0
46, -181823.66, -30642.38, 35470.00, 31222.53, -167537.81, -187500.02, -24305.44, 165545.69, 0.00, 0.00, 0.00, 0.00, 0.00, 0.00, 0.00, 0.00, 0
47, -181823.72, -30608.84, 35487.17, 31231.04, -167539.55, -187500.02, -24294.31, 165565.69, 0.00, 0.00, 0.00, 0.00, 0.00, 0.00, 0.00, 0.00, 0
48, -181826.72, -30599.65, 35480.55, 31236.36, -167537.73, -187500.02, -24303.88, 165564.91, 0.00, 0.00, 0.00, 0.00, 0.00, 0.00, 0.00, 0.00, 0
49, -181829.92, -30607.96, 35456.21, 31278.47, -167536.69, -187500.02, -24325.11, 165547.50, 0.00, 0.00, 0.00, 0.00, 0.00, 0.00, 0.00, 0.00, 0
50, -181831.13, -30591.85, 35456.30, 31237.68, -167535.22, -187500.02, -24325.98, 165550.16, 0.00, 0.00, 0.00, 0.00, 0.00, 0.00, 0.00, 0.00, 0
51, -181830.70, -30556.85, 35474.50, 31231.42, -167536.17, -187500.02, -24312.39, 165568.64, 0.00, 0.00, 0.00, 0.00, 0.00, 0.00, 0.00, 0.00, 0
52, -181832.08, -30541.36, 35472.89, 31238.42, -167536.73, -187500.02, -24315.99, 165571.02, 0.00, 0.00, 0.00, 0.00, 0.00, 0.00, 0.00, 0.00, 0
53, -181836.38, -30549.87, 35448.34, 31258.76, -167533.50, -187500.02, -24338.34, 165554.42, 0.00, 0.00, 0.00, 0.00, 0.00, 0.00, 0.00, 0.00, 0
54, -181839.97, -30539.72, 35442.89, 31249.88, -167529.94, -187500.02, -24343.20, 165552.17, 0.00, 0.00, 0.00, 0.00, 0.00, 0.00, 0.00, 0.00, 0
55, -181838.30, -30506.11, 35460.13, 31233.72, -167531.08, -187500.02, -24329.76, 165570.11, 0.00, 0.00, 0.00, 0.00, 0.00, 0.00, 0.00, 0.00, 0
56, -181834.98, -30484.89, 35464.53, 31237.23, -167533.92, -187500.02, -24328.00, 165576.47, 0.00, 0.00, 0.00, 0.00, 0.00, 0.00, 0.00, 0.00, 0
57, -181836.95, -30491.85, 35441.35, 31256.97, -167530.59, -187500.02, -24349.03, 165559.70, 0.00, 0.00, 0.00, 0.00, 0.00, 0.00, 0.00, 0.00, 0
58, -181837.64, -30486.86, 35430.20, 31247.13, -167525.67, -187500.02, -24359.00, 165552.86, 0.00, 0.00, 0.00, 0.00, 0.00, 0.00, 0.00, 0.00, 0
59, -181834.83, -30455.12, 35444.55, 31227.06, -167528.38, -187500.02, -24344.47, 165569.73, 0.00, 0.00, 0.00, 0.00, 0.00, 0.00, 0.00, 0.00, 0
60, -181831.08, -30429.08, 35453.13, 31240.05, -167533.38, -187500.02, -24336.69, 165581.89, 0.00, 0.00, 0.00, 0.00, 0.00, 0.00, 0.00, 0.00, 0
61, -181833.61, -30433.38, 35431.87, 31269.96, -167528.70, -187500.02, -24354.50, 165568.48, 0.00, 0.00, 0.00, 0.00, 0.00, 0.00, 0.00, 0.00, 0
62, -181835.28, -30427.67, 35415.67, 31268.59, -167526.44, -187500.02, -24366.91, 165559.44, 0.00, 0.00, 0.00, 0.00, 0.00, 0.00, 0.00, 0.00, 0
63, -181840.52, -30233.79, 35430.80, 31229.65, -167526.47, -187500.02, -24357.23, 165572.47, 0.00, 0.00, 0.00, 0.00, 0.00, 0.00, 0.00, 0.00, 0
64, -181845.41, -30015.17, 35455.41, 31242.20, -167529.58, -187500.02, -24347.24, 165587.17, 0.00, 0.00, 0.00, 0.00, 0.00, 0.00, 0.00, 0.00, 0
65, -181845.53, -29998.95, 35453.00, 31253.71, -167529.88, -187500.02, -24361.25, 165577.50, 0.00, 0.00, 0.00, 0.00, 0.00, 0.00, 0.00, 0.00, 0
