%OpenBCI Raw EEG Data
%
%Sample Rate = 250.0 Hz
%First Column = SampleIndex
%Other Columns = EEG data in microvolts with optional columns at end being unscaled Aux data
0, -4159.55, -4186.01, -4222.96, -4226.85, 3288.03, 3356.43, -158538.77, -170095.30, 0.00, 0.00, 0.00
1, -4218.27, -4232.08, -4277.25, -4271.42, 3386.40, 3454.64, -158593.27, -170151.08, 0.00, 0.00, 0.00
2, -4333.89, -4326.40, -4379.60, -4355.44, 3553.35, 3621.34, -158693.33, -170250.92, 0.00, 0.00, 0.00
3, -4282.91, -4285.30, -4332.19, -4314.91, 3470.80, 3538.86, -158646.78, -170203.20, 0.00, 0.00, 0.00
4, -4165.52, -4190.82, -4227.41, -4229.87, 3296.23, 3364.52, -158542.86, -170099.20, 0.00, 0.00, 0.00
5, -4197.23, -4215.45, -4258.68, -4256.22, 3353.79, 3421.98, -158573.94, -170131.42, 0.00, 0.00, 0.00
6, -4322.58, -4317.04, -4369.45, -4347.01, 3538.15, 3606.10, -158682.77, -170240.52, 0.00, 0.00, 0.00
7, -4305.71, -4304.03, -4353.78, -4333.47, 3504.57, 3572.55, -158666.31, -170222.94, 0.00, 0.00, 0.00
8, -4178.44, -4201.14, -4238.49, -4238.70, 3315.08, 3383.25, -158552.89, -170109.11, 0.00, 0.00, 0.00
9, -4175.40, -4197.41, -4237.13, -4237.91, 3320.93, 3389.17, -158551.84, -170109.20, 0.00, 0.00, 0.00
10, -4302.49, -4300.03, -4351.39, -4331.81, 3511.10, 3579.10, -158664.23, -170222.23, 0.00, 0.00, 0.00
11, -4320.15, -4314.94, -4366.30, -4343.52, 3528.02, 3595.99, -158678.19, -170235.00, 0.00, 0.00, 0.00
12, -4195.69, -4214.22, -4253.29, -4250.07, 3340.87, 3409.11, -158567.16, -170123.33, 0.00, 0.00, 0.00
13, -4161.25, -4185.77, -4223.27, -4226.18, 3297.98, 3366.37, -158537.55, -170094.80, 0.00, 0.00, 0.00
14, -4279.96, -4281.39, -4331.34, -4315.14, 3478.98, 3547.18, -158643.94, -170201.80, 0.00, 0.00, 0.00
15, -4330.81, -4323.39, -4375.87, -4351.46, 3545.37, 3613.29, -158686.89, -170243.83, 0.00, 0.00, 0.00
16, -4218.94, -4233.13, -4274.39, -4267.28, 3375.18, 3443.35, -158587.25, -170143.42, 0.00, 0.00, 0.00
17, -4158.21, -4184.34, -4221.89, -4225.95, 3290.00, 3358.33, -158534.91, -170091.73, 0.00, 0.00, 0.00
18, -4260.22, -4266.12, -4314.74, -4302.38, 3448.70, 3516.73, -158627.03, -170185.03, 0.00, 0.00, 0.00
19, -4336.33, -4327.77, -4381.03, -4355.93, 3555.40, 3623.26, -158691.17, -170248.52, 0.00, 0.00, 0.00
20, -4241.96, -4251.39, -4294.80, -4283.76, 3409.92, 3478.02, -158606.77, -170162.89, 0.00, 0.00, 0.00
21, -4155.64, -4182.44, -4218.94, -4223.34, 3283.94, 3352.29, -158530.97, -170087.53, 0.00, 0.00, 0.00
22, -4233.89, -4244.69, -4290.62, -4282.35, 3409.53, 3477.73, -158602.55, -170160.52, 0.00, 0.00, 0.00
23, -4337.07, -4328.59, -4382.17, -4357.45, 3557.35, 3625.34, -158691.59, -170249.31, 0.00, 0.00, 0.00
24, -4268.65, -4273.52, -4319.43, -4304.63, 3448.96, 3517.20, -158630.09, -170186.58, 0.00, 0.00, 0.00
25, -4162.86, -4188.96, -4226.40, -4229.91, 3292.26, 3360.70, -158537.41, -170094.02, 0.00, 0.00, 0.00
26, -4214.51, -4229.58, -4275.06, -4270.55, 3379.38, 3447.60, -158586.31, -170144.09, 0.00, 0.00, 0.00
27, -4334.27, -4326.96, -4380.32, -4356.76, 3552.94, 3620.85, -158689.25, -170247.08, 0.00, 0.00, 0.00
28, -4296.65, -4297.19, -4345.47, -4327.10, 3488.68, 3556.74, -158654.80, -170211.56, 0.00, 0.00, 0.00
29, -4173.14, -4197.37, -4234.69, -4236.37, 3305.89, 3374.20, -158545.23, -170101.84, 0.00, 0.00, 0.00
30, -4190.66, -4210.13, -4252.31, -4251.12, 3343.11, 3411.28, -158562.80, -170120.50, 0.00, 0.00, 0.00
31, -4318.51, -4313.80, -4365.94, -4344.53, 3531.89, 3599.84, -158674.61, -170232.59, 0.00, 0.00, 0.00
32, -4314.58, -4311.54, -4362.21, -4341.09, 3517.07, 3584.97, -158669.98, -170226.75, 0.00, 0.00, 0.00
33, -4190.42, -4211.67, -4250.88, -4249.71, 3330.50, 3398.69, -158560.16, -170116.47, 0.00, 0.00, 0.00
34, -4176.60, -4199.36, -4240.37, -4241.73, 3319.97, 3388.21, -158549.86, -170107.25, 0.00, 0.00, 0.00
35, -4302.71, -4301.28, -4352.60, -4334.14, 3508.44, 3576.46, -158661.11, -170219.17, 0.00, 0.00, 0.00
36, -4331.90, -4325.87, -4378.17, -4354.92, 3542.26, 3610.16, -158684.78, -170241.70, 0.00, 0.00, 0.00
37, -4209.17, -4226.40, -4267.17, -4262.68, 3358.10, 3426.34, -158575.47, -170131.73, 0.00, 0.00, 0.00
38, -4165.98, -4191.09, -4230.49, -4233.69, 3301.40, 3369.79, -158539.11, -170096.41, 0.00, 0.00, 0.00
39, -4278.71, -4281.57, -4331.34, -4316.21, 3474.35, 3542.37, -158639.64, -170197.89, 0.00, 0.00, 0.00
40, -4339.12, -4331.16, -4384.43, -4359.62, 3555.45, 3623.31, -158690.20, -170247.47, 0.00, 0.00, 0.00
41, -4232.88, -4245.47, -4287.98, -4279.51, 3392.95, 3461.08, -158595.52, -170151.75, 0.00, 0.00, 0.00
42, -4160.44, -4186.84, -4225.06, -4229.20, 3290.94, 3359.22, -158532.73, -170089.70, 0.00, 0.00, 0.00
43, -4252.62, -4260.11, -4308.21, -4297.06, 3436.60, 3504.64, -158615.97, -170174.05, 0.00, 0.00, 0.00
44, -4344.87, -4335.99, -4390.31, -4365.12, 3564.28, 3632.20, -158695.09, -170252.69, 0.00, 0.00, 0.00
45, -4263.42, -4271.11, -4317.04, -4304.52, 3435.66, 3503.84, -158622.86, -170179.38, 0.00, 0.00, 0.00
46, -4164.67, -4191.20, -4229.71, -4233.49, 3293.28, 3361.68, -158536.09, -170093.02, 0.00, 0.00, 0.00
47, -4231.32, -4243.59, -4290.15, -4282.93, 3402.96, 3471.14, -158597.06, -170155.05, 0.00, 0.00, 0.00
48, -4339.95, -4331.81, -4385.66, -4361.07, 3559.47, 3627.42, -158689.98, -170247.70, 0.00, 0.00, 0.00
49, -4280.45, -4283.69, -4331.16, -4314.87, 3464.59, 3532.63, -158636.25, -170192.72, 0.00, 0.00, 0.00
50, -4164.96, -4190.46, -4227.70, -4230.58, 3294.36, 3362.62, -158533.81, -170090.42, 0.00, 0.00, 0.00
51, -4204.01, -4220.88, -4264.47, -4261.09, 3363.20, 3431.42, -158571.00, -170128.86, 0.00, 0.00, 0.00
52, -4329.18, -4322.72, -4375.58, -4352.53, 3545.57, 3613.56, -158679.98, -170238.09, 0.00, 0.00, 0.00
53, -4303.45, -4302.62, -4351.71, -4332.21, 3498.52, 3566.56, -158656.00, -170212.81, 0.00, 0.00, 0.00
54, -4178.06, -4201.35, -4239.10, -4239.81, 3312.22, 3380.48, -158544.58, -170101.00, 0.00, 0.00, 0.00
55, -4183.60, -4204.45, -4245.80, -4245.51, 3331.93, 3400.15, -158551.33, -170108.89, 0.00, 0.00, 0.00
56, -4311.96, -4308.32, -4360.22, -4339.66, 3522.50, 3590.45, -158664.20, -170222.16, 0.00, 0.00, 0.00
57, -4317.78, -4313.46, -4364.56, -4342.43, 3522.75, 3590.67, -158667.55, -170224.39, 0.00, 0.00, 0.00
58, -4192.61, -4212.50, -4251.66, -4249.49, 3334.86, 3403.08, -158556.27, -170112.59, 0.00, 0.00, 0.00
59, -4168.58, -4192.45, -4231.74, -4233.87, 3307.88, 3376.01, -158536.42, -170093.97, 0.00, 0.00, 0.00
60, -4289.05, -4289.32, -4339.64, -4322.25, 3490.85, 3558.78, -158643.38, -170201.73, 0.00, 0.00, 0.00
61, -4329.73, -4322.85, -4375.11, -4351.01, 3542.24, 3610.12, -158677.44, -170234.70, 0.00, 0.00, 0.00
62, -4215.34, -4230.94, -4271.78, -4265.74, 3367.80, 3436.02, -158576.03, -170132.36, 0.00, 0.00, 0.00
63, -4160.98, -4186.84, -4224.90, -4228.48, 3293.60, 3361.95, -158528.92, -170086.13, 0.00, 0.00, 0.00
64, -4267.53, -4272.18, -4320.35, -4306.71, 3458.46, 3526.52, -158624.14, -170182.36, 0.00, 0.00, 0.00
65, -4338.67, -4330.40, -4383.76, -4358.84, 3556.45, 3624.27, -158684.94, -170242.30, 0.00, 0.00, 0.00
66, -4240.17, -4251.10, -4294.62, -4284.87, 3404.53, 3472.66, -158597.44, -170153.67, 0.00, 0.00, 0.00
67, -4158.14, -4184.81, -4222.13, -4226.47, 3287.07, 3355.38, -158525.20, -170082.27, 0.00, 0.00, 0.00
68, -4242.20, -4251.44, -4298.60, -4288.99, 3421.47, 3489.58, -158601.61, -170159.84, 0.00, 0.00, 0.00
69, -4337.76, -4329.09, -4382.86, -4357.79, 3557.57, 3625.41, -158683.25, -170241.09, 0.00, 0.00, 0.00
70, -4260.62, -4266.88, -4312.19, -4298.49, 3436.87, 3504.91, -158613.94, -170170.48, 0.00, 0.00, 0.00
71, -4156.42, -4183.02, -4219.05, -4223.00, 3284.23, 3352.45, -158521.72, -170078.47, 0.00, 0.00, 0.00
72, -4215.25, -4229.29, -4273.88, -4268.20, 3382.06, 3450.15, -158576.19, -170134.19, 0.00, 0.00, 0.00
73, -4331.12, -4323.19, -4376.67, -4352.56, 3550.10, 3617.94, -158676.53, -170234.44, 0.00, 0.00, 0.00
74, -4284.76, -4286.28, -4334.16, -4316.79, 3473.08, 3541.07, -158634.64, -170191.30, 0.00, 0.00, 0.00
75, -4167.59, -4192.47, -4229.89, -4232.28, 3298.65, 3366.95, -158531.31, -170087.97, 0.00, 0.00, 0.00
76, -4197.97, -4216.08, -4259.86, -4257.60, 3353.99, 3422.28, -158561.33, -170119.25, 0.00, 0.00, 0.00
77, -4323.59, -4317.80, -4370.75, -4348.49, 3538.55, 3606.48, -158670.31, -170228.36, 0.00, 0.00, 0.00
78, -4307.34, -4305.08, -4355.13, -4334.72, 3506.16, 3574.22, -158654.16, -170211.03, 0.00, 0.00, 0.00
79, -4181.36, -4203.60, -4241.94, -4241.80, 3317.98, 3386.29, -158542.50, -170099.05, 0.00, 0.00, 0.00
80, -4178.19, -4199.98, -4240.95, -4241.67, 3323.28, 3391.59, -158541.75, -170099.55, 0.00, 0.00, 0.00
81, -4303.90, -4301.35, -4352.64, -4333.24, 3511.68, 3579.74, -158652.25, -170210.52, 0.00, 0.00, 0.00
82, -4322.69, -4317.35, -4369.05, -4346.27, 3530.64, 3598.63, -158667.00, -170224.31, 0.00, 0.00, 0.00
83, -4200.21, -4218.65, -4258.54, -4255.33, 3345.79, 3414.03, -158558.33, -170114.97, 0.00, 0.00, 0.00
84, -4165.09, -4189.66, -4228.55, -4231.63, 3301.78, 3370.15, -158528.78, -170086.23, 0.00, 0.00, 0.00
85, -4281.16, -4282.64, -4332.95, -4317.22, 3479.67, 3547.83, -158632.31, -170190.67, 0.00, 0.00, 0.00
86, -4332.26, -4324.68, -4377.25, -4352.98, 3546.75, 3614.81, -158674.72, -170232.17, 0.00, 0.00, 0.00
87, -4221.53, -4235.43, -4276.81, -4269.72, 3377.77, 3445.95, -158575.89, -170132.27, 0.00, 0.00, 0.00
88, -4156.13, -4182.30, -4218.98, -4223.34, 3286.73, 3354.95, -158518.36, -170075.53, 0.00, 0.00, 0.00
89, -4253.11, -4259.26, -4306.71, -4294.69, 3439.80, 3507.84, -158605.77, -170164.27, 0.00, 0.00, 0.00
90, -4335.01, -4326.14, -4379.47, -4354.48, 3553.73, 3621.56, -158676.14, -170234.17, 0.00, 0.00, 0.00
91, -4242.36, -4251.32, -4294.93, -4284.02, 3410.56, 3478.65, -158592.94, -170149.56, 0.00, 0.00, 0.00
92, -4152.71, -4179.26, -4214.82, -4219.50, 3280.34, 3348.65, -158513.67, -170070.70, 0.00, 0.00, 0.00
93, -4229.49, -4240.10, -4286.28, -4278.26, 3404.24, 3472.32, -158584.59, -170143.06, 0.00, 0.00, 0.00
94, -4335.01, -4326.25, -4379.76, -4355.04, 3554.78, 3622.70, -158675.83, -170234.13, 0.00, 0.00, 0.00
95, -4268.15, -4272.60, -4318.67, -4303.65, 3448.87, 3516.96, -158615.78, -170172.59, 0.00, 0.00, 0.00
96, -4158.36, -4184.34, -4220.55, -4224.23, 3286.91, 3355.29, -158518.36, -170075.11, 0.00, 0.00, 0.00
97, -4206.73, -4222.22, -4265.83, -4261.52, 3369.17, 3437.50, -158563.42, -170121.53, 0.00, 0.00, 0.00
98, -4327.10, -4319.68, -4372.72, -4349.18, 3544.92, 3613.00, -158668.05, -170226.23, 0.00, 0.00, 0.00
99, -4289.57, -4289.57, -4337.78, -4319.27, 3481.71, 3549.93, -158633.44, -170190.45, 0.00, 0.00, 0.00
100, -4168.20, -4191.94, -4228.77, -4230.54, 3300.44, 3368.92, -158525.63, -170082.53, 0.00, 0.00, 0.00
101, -4187.11, -4206.35, -4248.26, -4247.26, 3338.39, 3406.70, -158544.97, -170103.00, 0.00, 0.00, 0.00
102, -4315.43, -4310.35, -4362.86, -4341.40, 3528.20, 3596.15, -158657.75, -170216.16, 0.00, 0.00, 0.00
103, -4312.37, -4308.77, -4359.26, -4337.65, 3514.90, 3582.90, -158653.48, -170210.70, 0.00, 0.00, 0.00
104, -4187.87, -4208.65, -4247.73, -4246.38, 3327.91, 3396.21, -158543.17, -170099.81, 0.00, 0.00, 0.00
105, -4173.50, -4196.32, -4236.73, -4238.34, 3315.81, 3383.99, -158532.30, -170090.13, 0.00, 0.00, 0.00
106, -4296.16, -4294.91, -4346.36, -4328.30, 3501.29, 3569.26, -158640.66, -170199.39, 0.00, 0.00, 0.00
107, -4329.06, -4322.65, -4375.38, -4352.00, 3539.91, 3607.86, -158668.03, -170225.61, 0.00, 0.00, 0.00
108, -4209.53, -4226.27, -4267.28, -4262.68, 3358.95, 3427.19, -158561.61, -170118.25, 0.00, 0.00, 0.00
109, -4164.06, -4189.07, -4228.06, -4231.43, 3298.78, 3367.20, -158522.77, -170080.47, 0.00, 0.00, 0.00
110, -4276.02, -4278.93, -4328.82, -4314.04, 3470.96, 3539.00, -158623.11, -170181.95, 0.00, 0.00, 0.00
111, -4336.37, -4328.17, -4381.88, -4357.09, 3553.10, 3620.96, -158673.59, -170231.64, 0.00, 0.00, 0.00
112, -4232.86, -4245.02, -4288.38, -4279.89, 3393.64, 3461.86, -158581.36, -170138.03, 0.00, 0.00, 0.00
113, -4158.41, -4184.85, -4222.69, -4226.87, 3288.48, 3356.85, -158516.16, -170073.44, 0.00, 0.00, 0.00
114, -4251.37, -4259.10, -4307.11, -4296.36, 3434.64, 3502.72, -158600.59, -170159.11, 0.00, 0.00, 0.00
115, -4341.94, -4333.13, -4387.22, -4362.14, 3561.66, 3629.48, -158678.11, -170236.17, 0.00, 0.00, 0.00
116, -4258.77, -4266.25, -4311.41, -4298.67, 3431.46, 3499.55, -158603.56, -170160.42, 0.00, 0.00, 0.00
117, -4158.99, -4185.41, -4222.54, -4226.47, 3286.78, 3355.13, -158515.23, -170072.41, 0.00, 0.00, 0.00
118, -4224.68, -4237.00, -4282.75, -4275.91, 3395.21, 3463.34, -158575.78, -170134.30, 0.00, 0.00, 0.00
119, -4335.23, -4326.87, -4380.58, -4356.18, 3554.87, 3622.64, -158671.23, -170229.72, 0.00, 0.00, 0.00
120, -4279.73, -4282.50, -4330.00, -4313.71, 3464.72, 3532.67, -158621.05, -170178.16, 0.00, 0.00, 0.00
121, -4165.07, -4190.44, -4227.74, -4230.72, 3295.00, 3363.29, -158519.53, -170076.67, 0.00, 0.00, 0.00
122, -4202.89, -4219.81, -4263.66, -4260.51, 3362.10, 3430.19, -158555.72, -170114.11, 0.00, 0.00, 0.00
123, -4329.20, -4322.67, -4375.78, -4352.89, 3545.95, 3613.76, -158665.80, -170224.44, 0.00, 0.00, 0.00
124, -4303.14, -4301.88, -4350.90, -4331.16, 3499.19, 3567.09, -158641.03, -170198.30, 0.00, 0.00, 0.00
125, -4177.12, -4200.16, -4237.58, -4238.18, 3311.70, 3379.92, -158528.88, -170085.69, 0.00, 0.00, 0.00
126, -4180.85, -4201.81, -4242.65, -4242.58, 3328.38, 3396.55, -158533.92, -170091.97, 0.00, 0.00, 0.00
127, -4308.57, -4305.10, -4356.80, -4336.44, 3518.63, 3586.56, -158646.50, -170205.27, 0.00, 0.00, 0.00
128, -4317.78, -4313.37, -4364.33, -4342.27, 3523.37, 3591.19, -158653.17, -170210.70, 0.00, 0.00, 0.00
129, -4194.17, -4213.80, -4253.22, -4250.90, 3337.12, 3405.24, -158543.25, -170099.92, 0.00, 0.00, 0.00
130, -4167.46, -4191.33, -4230.36, -4232.59, 3306.11, 3374.47, -158520.72, -170078.48, 0.00, 0.00, 0.00
131, -4288.27, -4288.61, -4338.56, -4321.42, 3489.49, 3557.46, -158628.20, -170186.94, 0.00, 0.00, 0.00
132, -4330.67, -4323.63, -4376.29, -4352.20, 3543.44, 3611.33, -158663.81, -170221.52, 0.00, 0.00, 0.00
133, -4216.59, -4231.65, -4273.30, -4267.33, 3369.46, 3437.68, -158562.33, -170119.14, 0.00, 0.00, 0.00
134, -4160.93, -4186.50, -4224.84, -4228.59, 3293.33, 3361.77, -158514.31, -170071.89, 0.00, 0.00, 0.00
135, -4265.03, -4269.65, -4318.40, -4305.04, 3455.69, 3523.82, -158607.73, -170166.53, 0.00, 0.00, 0.00
136, -4335.23, -4326.72, -4379.67, -4354.66, 3553.21, 3621.07, -158666.92, -170225.11, 0.00, 0.00, 0.00
137, -4236.86, -4247.48, -4290.37, -4280.38, 3401.87, 3469.91, -158579.00, -170136.02, 0.00, 0.00, 0.00
138, -4155.46, -4182.17, -4218.58, -4223.07, 3284.23, 3352.58, -158507.53, -170065.13, 0.00, 0.00, 0.00
139, -4241.42, -4250.88, -4297.41, -4288.32, 3420.15, 3488.30, -158586.11, -170144.83, 0.00, 0.00, 0.00
140, -4337.60, -4328.84, -4382.37, -4357.61, 3557.57, 3625.41, -158668.39, -170226.66, 0.00, 0.00, 0.00
141, -4265.85, -4271.73, -4317.22, -4303.29, 3443.15, 3511.19, -158604.44, -170161.39, 0.00, 0.00, 0.00
142, -4162.41, -4188.74, -4226.02, -4229.89, 3290.98, 3359.22, -158513.27, -170070.42, 0.00, 0.00, 0.00
143, -4217.48, -4231.68, -4276.89, -4271.46, 3384.48, 3452.52, -158564.59, -170123.19, 0.00, 0.00, 0.00
144, -4334.74, -4326.96, -4380.41, -4356.40, 3553.95, 3621.72, -158665.78, -170224.42, 0.00, 0.00, 0.00
145, -4287.56, -4288.85, -4336.73, -4319.18, 3476.66, 3544.67, -158622.48, -170179.83, 0.00, 0.00, 0.00
146, -4165.78, -4190.57, -4227.09, -4229.49, 3296.86, 3365.14, -158514.13, -170071.36, 0.00, 0.00, 0.00
147, -4193.41, -4211.94, -4254.27, -4252.49, 3348.27, 3416.53, -158541.23, -170099.77, 0.00, 0.00, 0.00
148, -4321.51, -4315.99, -4368.51, -4346.61, 3536.20, 3604.08, -158653.45, -170212.27, 0.00, 0.00, 0.00
149, -4308.25, -4305.82, -4355.39, -4334.79, 3507.73, 3575.74, -158640.05, -170197.59, 0.00, 0.00, 0.00
150, -4184.16, -4206.04, -4244.62, -4244.22, 3321.54, 3389.82, -158530.23, -170087.25, 0.00, 0.00, 0.00
151, -4180.98, -4202.89, -4244.02, -4244.91, 3326.01, 3394.27, -158529.88, -170088.08, 0.00, 0.00, 0.00
152, -4305.46, -4303.29, -4354.50, -4335.37, 3512.91, 3580.91, -158639.05, -170197.89, 0.00, 0.00, 0.00
153, -4324.28, -4318.87, -4370.62, -4347.64, 3532.94, 3600.89, -158653.66, -170211.36, 0.00, 0.00, 0.00
154, -4201.03, -4219.25, -4259.17, -4255.48, 3347.60, 3415.70, -158544.09, -170100.88, 0.00, 0.00, 0.00
155, -4165.05, -4189.66, -4228.23, -4231.25, 3301.60, 3369.82, -158513.58, -170071.42, 0.00, 0.00, 0.00
156, -4282.84, -4284.54, -4334.20, -4318.45, 3480.52, 3548.47, -158618.56, -170177.33, 0.00, 0.00, 0.00
157, -4335.50, -4327.88, -4380.70, -4356.29, 3550.28, 3618.19, -158662.67, -170220.63, 0.00, 0.00, 0.00
158, -4225.62, -4239.32, -4280.96, -4273.59, 3382.58, 3450.68, -158564.97, -170121.95, 0.00, 0.00, 0.00
159, -4155.79, -4182.17, -4218.69, -4222.92, 3286.44, 3354.71, -158503.41, -170061.25, 0.00, 0.00, 0.00
160, -4254.50, -4261.07, -4308.66, -4296.59, 3441.12, 3509.29, -158592.81, -170151.73, 0.00, 0.00, 0.00
161, -4339.23, -4330.69, -4384.03, -4358.99, 3558.38, 3626.30, -158665.64, -170223.81, 0.00, 0.00, 0.00
162, -4249.33, -4258.28, -4302.58, -4291.33, 3418.95, 3487.01, -158585.58, -170142.64, 0.00, 0.00, 0.00
163, -4157.13, -4183.89, -4220.55, -4224.90, 3285.57, 3353.95, -158504.02, -170061.52, 0.00, 0.00, 0.00
164, -4232.26, -4243.55, -4289.32, -4281.54, 3406.63, 3474.78, -158572.77, -170131.55, 0.00, 0.00, 0.00
165, -4336.77, -4328.35, -4382.04, -4357.49, 3556.68, 3624.54, -158662.64, -170221.25, 0.00, 0.00, 0.00
166, -4272.27, -4276.58, -4323.54, -4308.39, 3453.72, 3521.70, -158604.73, -170162.02, 0.00, 0.00, 0.00
167, -4163.10, -4189.12, -4226.54, -4229.89, 3292.37, 3360.54, -158508.48, -170065.80, 0.00, 0.00, 0.00
168, -4208.95, -4224.90, -4269.14, -4265.07, 3371.51, 3439.67, -158551.47, -170110.11, 0.00, 0.00, 0.00
169, -4329.47, -4322.67, -4375.76, -4352.47, 3547.45, 3615.24, -158655.84, -170214.66, 0.00, 0.00, 0.00
170, -4295.13, -4295.38, -4344.22, -4325.67, 3488.06, 3555.96, -158624.17, -170181.64, 0.00, 0.00, 0.00
171, -4172.09, -4196.03, -4233.58, -4235.01, 3305.00, 3373.24, -158514.72, -170071.83, 0.00, 0.00, 0.00
172, -4186.24, -4206.08, -4248.04, -4247.08, 3337.45, 3405.71, -158529.42, -170087.84, 0.00, 0.00, 0.00
173, -4313.64, -4309.15, -4361.43, -4340.28, 3526.17, 3594.18, -158641.17, -170200.13, 0.00, 0.00, 0.00
174, -4313.33, -4309.73, -4359.84, -4338.16, 3516.11, 3584.08, -158639.25, -170196.91, 0.00, 0.00, 0.00
175, -4189.10, -4209.84, -4248.22, -4246.79, 3329.20, 3397.53, -158529.05, -170086.06, 0.00, 0.00, 0.00
176, -4173.83, -4196.88, -4236.80, -4238.47, 3315.59, 3383.85, -158517.61, -170075.77, 0.00, 0.00, 0.00
177, -4296.81, -4296.01, -4346.27, -4328.04, 3501.20, 3569.13, -158625.98, -170184.97, 0.00, 0.00, 0.00
178, -4325.60, -4319.36, -4371.15, -4347.46, 3536.81, 3604.73, -158649.08, -170206.89, 0.00, 0.00, 0.00
179, -4208.39, -4225.13, -4266.28, -4261.40, 3358.75, 3426.88, -158545.28, -170102.22, 0.00, 0.00, 0.00
180, -4164.89, -4190.35, -4229.37, -4232.77, 3299.59, 3367.87, -158508.58, -170066.55, 0.00, 0.00, 0.00
181, -4275.82, -4279.38, -4328.77, -4314.49, 3470.09, 3538.19, -158607.75, -170166.81, 0.00, 0.00, 0.00
182, -4340.08, -4332.19, -4385.23, -4360.74, 3556.81, 3624.78, -158661.94, -170220.16, 0.00, 0.00, 0.00
183, -4236.30, -4248.42, -4291.09, -4282.33, 3397.69, 3465.84, -158569.50, -170126.63, 0.00, 0.00, 0.00
184, -4159.66, -4186.35, -4223.79, -4228.08, 3289.62, 3357.88, -158502.41, -170060.09, 0.00, 0.00, 0.00
185, -4250.05, -4258.28, -4305.75, -4295.31, 3432.96, 3501.00, -158584.55, -170143.44, 0.00, 0.00, 0.00
186, -4340.57, -4332.06, -4385.35, -4360.42, 3560.48, 3628.31, -158661.59, -170220.05, 0.00, 0.00, 0.00
187, -4257.69, -4265.20, -4309.80, -4296.94, 3431.33, 3499.39, -158587.23, -170144.42, 0.00, 0.00, 0.00
188, -4160.44, -4187.13, -4224.23, -4228.26, 3288.86, 3357.05, -158501.75, -170059.27, 0.00, 0.00, 0.00
189, -4226.49, -4239.32, -4284.81, -4278.15, 3396.71, 3464.81, -158562.53, -170121.45, 0.00, 0.00, 0.00
190, -4339.28, -4331.08, -4384.61, -4360.20, 3558.78, 3626.61, -158659.81, -170218.59, 0.00, 0.00, 0.00
191, -4284.56, -4287.33, -4334.65, -4318.16, 3470.20, 3538.08, -158610.41, -170167.77, 0.00, 0.00, 0.00
192, -4167.19, -4192.54, -4229.64, -4232.44, 3297.31, 3365.57, -158506.25, -170063.47, 0.00, 0.00, 0.00
193, -4202.87, -4220.17, -4263.46, -4260.60, 3361.43, 3429.58, -158540.41, -170099.03, 0.00, 0.00, 0.00
194, -4328.21, -4322.13, -4374.71, -4352.09, 3544.72, 3612.58, -158649.64, -170208.69, 0.00, 0.00, 0.00
195, -4305.59, -4304.57, -4353.40, -4333.76, 3502.29, 3570.27, -158628.11, -170185.78, 0.00, 0.00, 0.00
196, -4179.73, -4202.87, -4240.55, -4241.04, 3315.05, 3383.25, -158516.42, -170073.56, 0.00, 0.00, 0.00
197, -4184.05, -4205.28, -4246.76, -4246.88, 3331.95, 3400.26, -158522.66, -170081.22, 0.00, 0.00, 0.00
198, -4309.55, -4306.56, -4358.10, -4337.96, 3519.53, 3587.54, -158632.53, -170191.86, 0.00, 0.00, 0.00
199, -4318.45, -4314.15, -4364.67, -4342.45, 3524.40, 3592.35, -158638.28, -170196.28, 0.00, 0.00, 0.00
200, -4195.33, -4215.23, -4253.83, -4251.53, 3338.61, 3406.85, -158528.89, -170085.86, 0.00, 0.00, 0.00
201, -4169.81, -4194.30, -4233.33, -4236.04, 3308.86, 3377.15, -158508.59, -170066.64, 0.00, 0.00, 0.00
202, -4292.41, -4293.30, -4343.19, -4326.58, 3493.56, 3561.46, -158617.50, -170176.70, 0.00, 0.00, 0.00
203, -4334.70, -4328.17, -4380.23, -4356.38, 3548.09, 3615.93, -158652.44, -170210.61, 0.00, 0.00, 0.00
204, -4220.77, -4236.24, -4277.77, -4271.57, 3374.58, 3442.71, -158551.11, -170108.17, 0.00, 0.00, 0.00
205, -4165.85, -4191.94, -4231.32, -4235.14, 3298.98, 3367.38, -158504.63, -170062.50, 0.00, 0.00, 0.00
206, -4269.23, -4274.52, -4323.59, -4310.47, 3459.78, 3527.89, -158597.11, -170156.20, 0.00, 0.00, 0.00
207, -4341.76, -4333.76, -4387.04, -4362.10, 3559.87, 3627.69, -158657.97, -170216.38, 0.00, 0.00, 0.00
208, -4243.63, -4254.50, -4297.93, -4287.71, 3409.29, 3477.44, -158570.36, -170127.44, 0.00, 0.00, 0.00
209, -4157.20, -4184.34, -4221.31, -4225.53, 3286.11, 3354.46, -158494.00, -170051.73, 0.00, 0.00, 0.00
210, -4237.31, -4247.43, -4294.57, -4285.52, 3415.93, 3484.10, -158567.22, -170126.23, 0.00, 0.00, 0.00
211, -4338.41, -4330.27, -4383.78, -4358.86, 3558.69, 3626.59, -158654.16, -170212.95, 0.00, 0.00, 0.00
212, -4266.17, -4272.29, -4317.69, -4303.52, 3444.18, 3512.26, -158589.33, -170146.55, 0.00, 0.00, 0.00
213, -4160.15, -4186.86, -4223.34, -4227.16, 3288.57, 3356.92, -158495.34, -170052.56, 0.00, 0.00, 0.00
214, -4215.85, -4230.72, -4274.91, -4269.67, 3381.66, 3449.90, -158547.17, -170105.91, 0.00, 0.00, 0.00
215, -4333.53, -4326.40, -4379.31, -4355.53, 3552.34, 3620.27, -158649.14, -170208.06, 0.00, 0.00, 0.00
216, -4290.24, -4291.96, -4339.64, -4322.02, 3480.01, 3548.12, -158609.69, -170167.11, 0.00, 0.00, 0.00
217, -4170.68, -4195.80, -4233.20, -4235.34, 3302.45, 3370.82, -158503.92, -170061.08, 0.00, 0.00, 0.00
218, -4194.10, -4213.21, -4256.02, -4254.19, 3348.96, 3417.22, -158527.06, -170085.69, 0.00, 0.00, 0.00
219, -4320.50, -4315.59, -4367.80, -4345.72, 3535.13, 3603.19, -158637.23, -170196.39, 0.00, 0.00, 0.00
220, -4306.64, -4304.48, -4353.69, -4332.80, 3506.72, 3574.85, -158622.86, -170180.56, 0.00, 0.00, 0.00
221, -4185.36, -4207.54, -4246.47, -4245.85, 3323.44, 3391.83, -158515.84, -170072.94, 0.00, 0.00, 0.00
222, -4180.38, -4202.82, -4244.31, -4245.22, 3325.25, 3393.62, -158514.05, -170072.39, 0.00, 0.00, 0.00
223, -4305.33, -4303.63, -4355.13, -4336.10, 3512.71, 3580.73, -158623.83, -170182.89, 0.00, 0.00, 0.00
224, -4324.32, -4319.12, -4370.50, -4347.44, 3533.50, 3601.42, -158637.95, -170195.86, 0.00, 0.00, 0.00
225, -4203.04, -4221.46, -4261.07, -4257.25, 3349.92, 3418.16, -158530.02, -170086.89, 0.00, 0.00, 0.00
226, -4164.91, -4190.19, -4228.66, -4231.56, 3301.22, 3369.48, -158497.80, -170055.70, 0.00, 0.00, 0.00
227, -4281.07, -4283.73, -4333.09, -4317.35, 3478.62, 3546.64, -158601.61, -170160.56, 0.00, 0.00, 0.00
228, -4336.73, -4329.58, -4382.26, -4357.79, 3552.16, 3620.16, -158648.36, -170206.53, 0.00, 0.00, 0.00
229, -4228.48, -4242.61, -4284.52, -4276.81, 3386.38, 3454.62, -158552.03, -170109.16, 0.00, 0.00, 0.00
230, -4158.61, -4185.56, -4222.85, -4226.85, 3289.30, 3357.72, -158490.73, -170048.59, 0.00, 0.00, 0.00
231, -4255.39, -4262.61, -4310.53, -4298.71, 3441.45, 3509.54, -158578.22, -170137.25, 0.00, 0.00, 0.00
232, -4340.91, -4332.93, -4386.33, -4361.23, 3560.23, 3628.09, -158651.47, -170209.95, 0.00, 0.00, 0.00
233, -4252.26, -4261.76, -4305.71, -4294.04, 3422.36, 3490.43, -158572.23, -170129.53, 0.00, 0.00, 0.00
234, -4156.49, -4184.05, -4220.23, -4224.39, 3284.83, 3353.16, -158487.44, -170044.94, 0.00, 0.00, 0.00
235, -4226.80, -4239.10, -4284.58, -4276.96, 3400.77, 3468.92, -158551.80, -170110.77, 0.00, 0.00, 0.00
236, -4334.25, -4326.74, -4379.69, -4354.95, 3554.58, 3622.46, -158644.50, -170203.47, 0.00, 0.00, 0.00
237, -4270.08, -4274.99, -4320.86, -4305.24, 3452.45, 3520.60, -158586.45, -170143.86, 0.00, 0.00, 0.00
238, -4158.07, -4184.76, -4220.25, -4223.52, 3286.96, 3355.40, -158486.72, -170044.11, 0.00, 0.00, 0.00
239, -4204.03, -4220.93, -4264.04, -4260.04, 3365.68, 3433.97, -158530.34, -170089.17, 0.00, 0.00, 0.00
240, -4327.05, -4320.93, -4373.43, -4350.10, 3545.08, 3613.05, -158637.70, -170196.75, 0.00, 0.00, 0.00
241, -4294.19, -4294.80, -4342.99, -4323.97, 3488.19, 3556.25, -158607.33, -170164.94, 0.00, 0.00, 0.00
242, -4171.64, -4196.20, -4232.91, -4234.34, 3305.44, 3373.75, -158498.58, -170055.84, 0.00, 0.00, 0.00
243, -4185.61, -4206.46, -4247.41, -4246.70, 3336.38, 3404.57, -158513.22, -170071.83, 0.00, 0.00, 0.00
244, -4312.84, -4309.24, -4360.51, -4339.35, 3525.00, 3592.95, -158624.78, -170183.94, 0.00, 0.00, 0.00
245, -4311.41, -4308.30, -4358.03, -4336.22, 3515.06, 3583.01, -158621.63, -170179.50, 0.00, 0.00, 0.00
246, -4188.23, -4209.44, -4248.17, -4246.56, 3329.43, 3397.67, -158512.67, -170069.77, 0.00, 0.00, 0.00
247, -4173.34, -4197.32, -4237.02, -4238.85, 3314.85, 3383.16, -158501.58, -170059.95, 0.00, 0.00, 0.00
248, -4297.03, -4297.28, -4346.99, -4328.84, 3501.15, 3569.10, -158610.91, -170170.22, 0.00, 0.00, 0.00
249, -4327.03, -4321.44, -4373.14, -4349.31, 3538.91, 3606.79, -158635.00, -170193.16, 0.00, 0.00, 0.00
250, -4206.62, -4223.92, -4264.47, -4259.44, 3357.92, 3426.16, -158527.95, -170084.97, 0.00, 0.00, 0.00
251, -4157.71, -4184.13, -4220.79, -4224.44, 3291.61, 3359.87, -158484.88, -170042.95, 0.00, 0.00, 0.00
252, -4269.56, -4274.06, -4322.76, -4308.46, 3463.09, 3531.11, -158585.63, -170144.98, 0.00, 0.00, 0.00
253, -4335.32, -4327.88, -4380.70, -4355.62, 3552.54, 3620.56, -158641.59, -170200.13, 0.00, 0.00, 0.00
254, -4232.12, -4244.69, -4287.06, -4277.68, 3394.36, 3462.51, -158549.45, -170106.78, 0.00, 0.00, 0.00
255, -4154.85, -4182.17, -4218.53, -4222.74, 3284.34, 3352.63, -158481.42, -170039.39, 0.00, 0.00, 0.00
0, -4244.46, -4253.47, -4300.79, -4290.40, 3426.68, 3494.81, -158563.25, -170122.45, 0.00, 0.00, 0.00
1, -4338.43, -4330.43, -4384.14, -4359.06, 3558.80, 3626.64, -158643.78, -170202.63, 0.00, 0.00, 0.00
2, -4261.63, -4269.47, -4314.71, -4301.68, 3436.54, 3504.51, -158575.50, -170133.03, 0.00, 0.00, 0.00
3, -4161.78, -4189.07, -4226.47, -4230.36, 3290.87, 3359.18, -158487.75, -170045.42, 0.00, 0.00, 0.00
4, -4224.14, -4237.98, -4283.82, -4277.25, 3394.29, 3462.44, -158545.23, -170104.28, 0.00, 0.00, 0.00
5, -4338.05, -4330.76, -4384.41, -4360.07, 3557.91, 3625.81, -158643.41, -170202.47, 0.00, 0.00, 0.00
6, -4287.60, -4290.80, -4338.45, -4321.73, 3474.22, 3542.28, -158597.88, -170155.55, 0.00, 0.00, 0.00
7, -4168.94, -4194.93, -4232.44, -4234.92, 3299.79, 3368.09, -158492.89, -170050.48, 0.00, 0.00, 0.00
8, -4202.04, -4220.17, -4264.13, -4261.11, 3360.65, 3428.76, -158524.72, -170083.52, 0.00, 0.00, 0.00
9, -4328.77, -4323.48, -4376.23, -4353.43, 3545.32, 3613.18, -158634.77, -170193.91, 0.00, 0.00, 0.00
10, -4308.46, -4307.76, -4356.96, -4336.86, 3506.03, 3574.02, -158615.28, -170173.19, 0.00, 0.00, 0.00
11, -4182.73, -4206.29, -4244.24, -4244.44, 3318.74, 3386.94, -158503.86, -170061.31, 0.00, 0.00, 0.00
12, -4184.27, -4206.24, -4248.08, -4248.15, 3332.13, 3400.37, -158507.86, -170066.59, 0.00, 0.00, 0.00
13, -4309.95, -4307.65, -4359.10, -4338.81, 3519.59, 3587.59, -158617.61, -170176.77, 0.00, 0.00, 0.00
14, -4320.64, -4316.61, -4367.42, -4344.73, 3526.95, 3594.85, -158624.78, -170182.80, 0.00, 0.00, 0.00
15, -4199.98, -4219.81, -4259.50, -4256.42, 3344.00, 3412.19, -158518.28, -170075.67, 0.00, 0.00, 0.00
16, -4170.95, -4195.74, -4235.79, -4237.98, 3309.91, 3378.22, -158494.78, -170053.11, 0.00, 0.00, 0.00
17, -4288.83, -4290.40, -4340.62, -4323.63, 3489.58, 3557.59, -158598.86, -170158.08, 0.00, 0.00, 0.00
18, -4334.61, -4328.26, -4380.92, -4356.51, 3548.50, 3616.42, -158636.81, -170195.05, 0.00, 0.00, 0.00
19, -4221.17, -4236.82, -4278.21, -4271.46, 3375.74, 3443.98, -158536.05, -170093.34, 0.00, 0.00, 0.00
20, -4161.36, -4188.07, -4225.98, -4229.82, 3293.66, 3361.99, -158484.30, -170042.48, 0.00, 0.00, 0.00
21, -4268.45, -4274.48, -4322.85, -4309.91, 3457.86, 3525.97, -158580.66, -170139.84, 0.00, 0.00, 0.00
22, -4343.68, -4336.04, -4389.30, -4364.22, 3561.71, 3629.63, -158644.34, -170202.92, 0.00, 0.00, 0.00
23, -4247.32, -4258.16, -4301.73, -4291.02, 3413.45, 3481.66, -158558.58, -170115.98, 0.00, 0.00, 0.00
24, -4159.19, -4186.64, -4223.85, -4227.97, 3288.03, 3356.32, -158481.03, -170039.08, 0.00, 0.00, 0.00
25, -4237.78, -4248.55, -4294.95, -4285.88, 3415.30, 3483.41, -158552.45, -170111.52, 0.00, 0.00, 0.00
26, -4336.89, -4329.11, -4382.42, -4357.41, 3556.90, 3624.85, -158637.20, -170195.98, 0.00, 0.00, 0.00
27, -4264.94, -4271.26, -4316.77, -4302.35, 3443.38, 3511.48, -158572.70, -170130.20, 0.00, 0.00, 0.00
28, -4156.84, -4183.98, -4219.65, -4223.29, 3285.01, 3353.34, -158476.77, -170034.47, 0.00, 0.00, 0.00
29, -4212.25, -4227.77, -4271.98, -4266.70, 3377.37, 3445.54, -158528.72, -170087.67, 0.00, 0.00, 0.00
30, -4331.34, -4324.55, -4377.50, -4353.40, 3549.93, 3617.90, -158631.98, -170190.80, 0.00, 0.00, 0.00
31, -4288.27, -4290.01, -4337.74, -4319.52, 3478.58, 3546.71, -158592.53, -170150.13, 0.00, 0.00, 0.00
32, -4167.64, -4193.01, -4229.82, -4231.68, 3299.43, 3367.80, -158485.73, -170043.08, 0.00, 0.00, 0.00
33, -4192.09, -4211.76, -4254.30, -4252.44, 3346.12, 3414.27, -158510.19, -170068.83, 0.00, 0.00, 0.00
34, -4319.79, -4315.38, -4367.89, -4345.89, 3534.19, 3602.12, -158621.92, -170181.08, 0.00, 0.00, 0.00
35, -4308.12, -4305.97, -4355.21, -4333.94, 3508.98, 3577.02, -158609.47, -170167.33, 0.00, 0.00, 0.00
36, -4183.37, -4205.57, -4243.21, -4242.27, 3321.42, 3389.71, -158498.52, -170055.91, 0.00, 0.00, 0.00
37, -4173.76, -4197.01, -4236.86, -4237.71, 3317.36, 3385.66, -158492.06, -170050.59, 0.00, 0.00, 0.00
38, -4299.42, -4298.49, -4349.02, -4329.67, 3506.12, 3574.00, -158603.22, -170162.50, 0.00, 0.00, 0.00
39, -4326.94, -4321.91, -4373.54, -4350.03, 3536.31, 3604.24, -158625.83, -170183.92, 0.00, 0.00, 0.00
40, -4207.36, -4225.78, -4266.05, -4261.56, 3355.02, 3423.33, -158519.92, -170077.22, 0.00, 0.00, 0.00
41, -4166.75, -4192.34, -4231.68, -4234.49, 3303.16, 3371.60, -158485.75, -170044.09, 0.00, 0.00, 0.00
42, -4279.49, -4282.55, -4332.48, -4316.84, 3476.50, 3544.63, -158585.91, -170145.30, 0.00, 0.00, 0.00
43, -4337.60, -4330.54, -4383.58, -4358.68, 3553.35, 3621.36, -158634.84, -170193.19, 0.00, 0.00, 0.00
44, -4228.55, -4242.63, -4284.58, -4276.47, 3387.14, 3455.38, -158537.59, -170095.03, 0.00, 0.00, 0.00
45, -4157.18, -4184.38, -4221.44, -4225.35, 3287.47, 3355.87, -158474.89, -170033.09, 0.00, 0.00, 0.00
46, -4253.38, -4260.98, -4308.83, -4297.03, 3438.50, 3506.68, -158562.08, -170121.42, 0.00, 0.00, 0.00
47, -4340.13, -4332.13, -4385.68, -4360.33, 3559.29, 3627.22, -158636.20, -170194.95, 0.00, 0.00, 0.00
48, -4253.43, -4262.61, -4307.09, -4294.91, 3424.31, 3492.37, -158559.06, -170116.70, 0.00, 0.00, 0.00
49, -4160.24, -4187.73, -4225.31, -4229.11, 3288.99, 3357.43, -158477.53, -170035.56, 0.00, 0.00, 0.00
50, -4230.34, -4242.94, -4289.39, -4281.39, 3404.04, 3472.32, -158541.86, -170101.06, 0.00, 0.00, 0.00
51, -4337.71, -4330.18, -4383.67, -4358.48, 3557.68, 3625.72, -158633.72, -170192.59, 0.00, 0.00, 0.00
52, -4275.02, -4279.67, -4326.02, -4309.89, 3457.97, 3526.08, -158577.33, -170134.92, 0.00, 0.00, 0.00
53, -4161.51, -4188.16, -4224.55, -4227.47, 3290.91, 3359.22, -158476.75, -170034.44, 0.00, 0.00, 0.00
54, -4205.41, -4222.54, -4266.46, -4262.41, 3366.60, 3434.88, -158518.31, -170077.38, 0.00, 0.00, 0.00
55, -4327.79, -4321.84, -4374.88, -4351.30, 3545.19, 3613.25, -158624.47, -170183.66, 0.00, 0.00, 0.00
56, -4297.44, -4297.88, -4346.68, -4327.28, 3491.77, 3559.78, -158596.23, -170154.09, 0.00, 0.00, 0.00
57, -4172.18, -4196.56, -4233.40, -4234.36, 3305.80, 3374.13, -158484.70, -170042.28, 0.00, 0.00, 0.00
58, -4184.89, -4205.93, -4247.64, -4246.88, 3335.01, 3403.39, -158498.78, -170057.75, 0.00, 0.00, 0.00
59, -4313.82, -4310.40, -4362.64, -4341.56, 3525.74, 3593.74, -158612.08, -170171.56, 0.00, 0.00, 0.00
60, -4317.91, -4314.71, -4365.54, -4343.55, 3521.94, 3589.89, -158614.02, -170172.19, 0.00, 0.00, 0.00
61, -4194.95, -4216.01, -4255.28, -4253.22, 3336.18, 3404.48, -158505.09, -170062.55, 0.00, 0.00, 0.00
62, -4173.72, -4197.90, -4238.43, -4240.22, 3314.85, 3383.25, -158488.66, -170047.22, 0.00, 0.00, 0.00
63, -4295.65, -4296.12, -4346.88, -4328.97, 3499.37, 3567.36, -158596.39, -170155.91, 0.00, 0.00, 0.00
64, -4332.59, -4326.96, -4379.40, -4355.55, 3544.72, 3612.69, -158626.80, -170185.33, 0.00, 0.00, 0.00
65, -4214.87, -4232.06, -4273.14, -4267.60, 3366.35, 3434.66, -158522.14, -170079.64, 0.00, 0.00, 0.00
66, -4163.33, -4189.90, -4228.37, -4231.86, 3297.73, 3366.04, -158478.09, -170036.52, 0.00, 0.00, 0.00
67, -4272.02, -4277.05, -4325.96, -4311.90, 3465.48, 3533.48, -158575.36, -170134.75, 0.00, 0.00, 0.00
68, -4338.56, -4331.37, -4384.54, -4359.46, 3555.89, 3623.84, -158631.11, -170189.75, 0.00, 0.00, 0.00
69, -4237.31, -4249.87, -4292.74, -4283.24, 3400.10, 3468.25, -158540.88, -170098.27, 0.00, 0.00, 0.00
70, -4156.04, -4183.69, -4220.32, -4224.52, 3285.37, 3353.68, -158469.30, -170027.34, 0.00, 0.00, 0.00
71, -4243.70, -4253.20, -4300.07, -4289.72, 3424.96, 3493.06, -158549.23, -170108.50, 0.00, 0.00, 0.00
72, -4341.07, -4333.29, -4386.75, -4361.52, 3561.26, 3629.16, -158632.94, -170191.92, 0.00, 0.00, 0.00
73, -4265.18, -4272.96, -4318.11, -4304.52, 3440.60, 3508.64, -158565.27, -170123.06, 0.00, 0.00, 0.00
74, -4163.28, -4190.77, -4228.48, -4231.94, 3292.39, 3360.67, -158475.97, -170033.89, 0.00, 0.00, 0.00
75, -4222.62, -4236.91, -4282.62, -4276.16, 3391.97, 3460.23, -158530.64, -170089.92, 0.00, 0.00, 0.00
76, -4334.70, -4327.66, -4381.01, -4356.38, 3554.04, 3622.06, -158626.66, -170185.81, 0.00, 0.00, 0.00
77, -4283.71, -4286.82, -4334.36, -4317.13, 3470.78, 3538.93, -158580.48, -170138.28, 0.00, 0.00, 0.00
78, -4168.00, -4193.99, -4231.56, -4233.93, 3298.74, 3367.04, -158478.42, -170036.13, 0.00, 0.00, 0.00
79, -4201.26, -4219.88, -4263.46, -4260.51, 3358.77, 3426.99, -158510.72, -170069.86, 0.00, 0.00, 0.00
80, -4327.83, -4322.83, -4375.38, -4352.62, 3543.71, 3611.68, -158620.72, -170180.03, 0.00, 0.00, 0.00
81, -4308.23, -4307.45, -4356.89, -4336.60, 3506.18, 3574.22, -158601.84, -170160.05, 0.00, 0.00, 0.00
82, -4183.67, -4207.05, -4245.69, -4245.45, 3320.15, 3388.46, -158491.77, -170049.63, 0.00, 0.00, 0.00
83, -4183.93, -4206.11, -4247.66, -4247.75, 3330.68, 3398.94, -158494.14, -170053.03, 0.00, 0.00, 0.00
84, -4313.08, -4310.96, -4362.68, -4342.63, 3521.79, 3589.76, -158607.58, -170167.06, 0.00, 0.00, 0.00
85, -4326.56, -4322.29, -4373.79, -4350.92, 3533.43, 3601.34, -158617.73, -170176.05, 0.00, 0.00, 0.00
86, -4204.97, -4224.64, -4265.25, -4261.81, 3349.90, 3418.21, -158510.70, -170068.34, 0.00, 0.00, 0.00
87, -4173.50, -4198.46, -4239.08, -4241.31, 3311.99, 3380.43, -158484.70, -170043.33, 0.00, 0.00, 0.00
88, -4291.89, -4293.73, -4343.64, -4326.87, 3491.28, 3559.38, -158588.73, -170148.17, 0.00, 0.00, 0.00
89, -4339.57, -4333.15, -4386.24, -4361.88, 3553.46, 3621.47, -158628.89, -170187.42, 0.00, 0.00, 0.00
90, -4226.31, -4241.60, -4284.14, -4277.16, 3381.68, 3449.97, -158528.77, -170086.38, 0.00, 0.00, 0.00
91, -4162.30, -4189.14, -4227.90, -4231.61, 3294.31, 3362.73, -158472.97, -170031.41, 0.00, 0.00, 0.00
92, -4265.20, -4271.60, -4320.32, -4307.43, 3453.86, 3522.03, -158565.33, -170124.98, 0.00, 0.00, 0.00
93, -4343.99, -4336.28, -4390.06, -4364.80, 3561.93, 3629.88, -158632.20, -170191.20, 0.00, 0.00, 0.00
94, -4249.20, -4259.84, -4304.16, -4293.14, 3415.70, 3483.85, -158547.78, -170105.64, 0.00, 0.00, 0.00
95, -4161.45, -4188.87, -4227.07, -4230.94, 3290.18, 3358.60, -158471.45, -170029.73, 0.00, 0.00, 0.00
96, -4241.27, -4252.35, -4299.60, -4290.48, 3418.27, 3486.45, -158544.42, -170103.83, 0.00, 0.00, 0.00
97, -4343.59, -4335.93, -4389.68, -4364.51, 3563.29, 3631.11, -158631.70, -170190.69, 0.00, 0.00, 0.00
98, -4272.51, -4278.50, -4325.00, -4310.18, 3451.58, 3519.64, -158568.17, -170126.08, 0.00, 0.00, 0.00
99, -4164.91, -4191.78, -4229.89, -4233.04, 3293.71, 3362.04, -158473.44, -170031.59, 0.00, 0.00, 0.00
100, -4219.03, -4234.78, -4279.93, -4274.68, 3383.09, 3451.35, -158523.95, -170083.30, 0.00, 0.00, 0.00
101, -4339.37, -4332.75, -4386.31, -4362.28, 3556.92, 3625.01, -158628.11, -170187.36, 0.00, 0.00, 0.00
102, -4298.84, -4300.34, -4349.02, -4330.54, 3489.06, 3557.24, -158591.14, -170149.14, 0.00, 0.00, 0.00
103, -4174.52, -4199.56, -4237.58, -4238.83, 3306.07, 3374.42, -158480.81, -170038.56, 0.00, 0.00, 0.00
104, -4196.94, -4216.79, -4259.95, -4258.03, 3349.74, 3418.16, -158503.64, -170062.81, 0.00, 0.00, 0.00
105, -4327.10, -4322.98, -4375.49, -4353.54, 3540.11, 3608.11, -158617.45, -170176.94, 0.00, 0.00, 0.00
106, -4319.18, -4317.04, -4367.93, -4346.81, 3519.80, 3587.72, -158608.84, -170167.16, 0.00, 0.00, 0.00
107, -4193.72, -4215.78, -4255.64, -4254.50, 3332.15, 3400.35, -158497.98, -170055.80, 0.00, 0.00, 0.00
108, -4182.46, -4205.53, -4247.05, -4247.93, 3325.20, 3393.46, -158490.05, -170049.16, 0.00, 0.00, 0.00
109, -4308.83, -4307.92, -4358.84, -4339.81, 3513.45, 3581.46, -158600.95, -170160.86, 0.00, 0.00, 0.00
110, -4334.88, -4329.51, -4382.31, -4358.90, 3543.60, 3611.68, -158622.33, -170181.11, 0.00, 0.00, 0.00
111, -4214.51, -4232.50, -4274.46, -4269.83, 3362.04, 3430.46, -158515.89, -170073.69, 0.00, 0.00, 0.00
112, -4171.01, -4196.56, -4237.51, -4240.30, 3306.78, 3375.18, -158479.67, -170038.34, 0.00, 0.00, 0.00
113, -4283.96, -4287.15, -4337.69, -4322.40, 3479.63, 3547.76, -158579.81, -170139.59, 0.00, 0.00, 0.00
114, -4343.48, -4336.39, -4390.08, -4365.43, 3558.40, 3626.41, -158629.55, -170188.56, 0.00, 0.00, 0.00
115, -4237.22, -4250.79, -4294.73, -4286.37, 3395.97, 3464.19, -158535.58, -170093.39, 0.00, 0.00, 0.00
116, -4165.60, -4192.49, -4232.10, -4235.86, 3295.63, 3364.03, -158473.33, -170031.77, 0.00, 0.00, 0.00
117, -4258.01, -4265.99, -4314.11, -4302.67, 3441.36, 3509.65, -158555.94, -170115.61, 0.00, 0.00, 0.00
118, -4343.66, -4335.70, -4389.61, -4364.38, 3561.71, 3629.70, -158628.69, -170187.89, 0.00, 0.00, 0.00
119, -4257.72, -4266.63, -4311.65, -4299.38, 3427.73, 3495.90, -158551.98, -170109.88, 0.00, 0.00, 0.00
120, -4161.72, -4188.96, -4226.69, -4230.58, 3288.97, 3357.39, -158467.58, -170025.84, 0.00, 0.00, 0.00
121, -4234.34, -4247.14, -4293.03, -4285.48, 3405.60, 3473.91, -158534.64, -170094.31, 0.00, 0.00, 0.00
122, -4343.26, -4335.86, -4389.35, -4364.65, 3561.71, 3629.72, -158628.36, -170187.88, 0.00, 0.00, 0.00
123, -4282.50, -4286.84, -4333.71, -4317.51, 3464.52, 3532.74, -158573.34, -170131.55, 0.00, 0.00, 0.00
124, -4169.07, -4195.47, -4233.42, -4236.08, 3297.53, 3366.02, -158473.55, -170031.86, 0.00, 0.00, 0.00
125, -4209.55, -4226.74, -4271.28, -4267.44, 3368.83, 3437.16, -158512.00, -170071.52, 0.00, 0.00, 0.00
126, -4331.48, -4325.55, -4378.75, -4355.30, 3547.07, 3615.06, -158617.45, -170177.17, 0.00, 0.00, 0.00
127, -4300.52, -4300.70, -4349.60, -4330.00, 3493.82, 3561.88, -158588.45, -170146.81, 0.00, 0.00, 0.00
128, -4178.23, -4202.44, -4240.71, -4241.33, 3311.30, 3379.65, -158480.41, -170038.34, 0.00, 0.00, 0.00
129, -4188.69, -4209.71, -4252.11, -4251.41, 3337.36, 3405.80, -158492.39, -170051.64, 0.00, 0.00, 0.00
130, -4314.49, -4311.25, -4363.04, -4341.98, 3524.49, 3592.57, -158602.03, -170161.95, 0.00, 0.00, 0.00
131, -4321.08, -4317.71, -4368.74, -4346.61, 3524.22, 3592.24, -158606.34, -170165.03, 0.00, 0.00, 0.00
132, -4196.12, -4217.01, -4256.46, -4254.12, 3336.58, 3404.93, -158495.41, -170053.11, 0.00, 0.00, 0.00
133, -4174.34, -4198.46, -4238.76, -4240.37, 3313.38, 3381.77, -158478.05, -170037.05, 0.00, 0.00, 0.00
134, -4299.11, -4299.56, -4349.96, -4332.08, 3500.42, 3568.55, -158588.70, -170148.83, 0.00, 0.00, 0.00
135, -4336.31, -4330.29, -4382.71, -4358.68, 3547.15, 3615.19, -158619.50, -170178.42, 0.00, 0.00, 0.00
136, -4217.93, -4234.49, -4275.91, -4270.12, 3368.65, 3436.89, -158514.00, -170071.80, 0.00, 0.00, 0.00
137, -4165.34, -4191.53, -4230.67, -4234.00, 3297.84, 3366.24, -158469.08, -170027.81, 0.00, 0.00, 0.00
138, -4274.08, -4278.82, -4328.15, -4314.09, 3465.24, 3533.39, -158566.67, -170126.67, 0.00, 0.00, 0.00
139, -4341.09, -4333.35, -4386.55, -4361.50, 3557.37, 3625.27, -158622.97, -170182.16, 0.00, 0.00, 0.00
140, -4239.46, -4251.26, -4294.35, -4284.52, 3401.73, 3469.93, -158532.25, -170090.20, 0.00, 0.00, 0.00
141, -4159.15, -4186.44, -4224.03, -4228.03, 3287.23, 3355.62, -158461.88, -170020.42, 0.00, 0.00, 0.00
142, -4245.11, -4254.68, -4302.40, -4292.45, 3424.44, 3492.68, -158540.20, -170100.19, 0.00, 0.00, 0.00
143, -4341.20, -4333.09, -4386.89, -4361.76, 3559.74, 3627.78, -158622.34, -170181.86, 0.00, 0.00, 0.00
144, -4263.48, -4270.57, -4315.81, -4302.11, 3437.90, 3506.05, -158552.67, -170110.78, 0.00, 0.00, 0.00
145, -4161.36, -4188.47, -4225.69, -4229.33, 3288.70, 3357.08, -158462.75, -170020.97, 0.00, 0.00, 0.00
146, -4223.52, -4237.85, -4283.00, -4276.74, 3390.63, 3458.93, -158520.63, -170080.25, 0.00, 0.00, 0.00
147, -4338.83, -4331.54, -4385.01, -4360.60, 3556.83, 3624.85, -158620.00, -170179.73, 0.00, 0.00, 0.00
148, -4290.06, -4292.61, -4340.44, -4323.07, 3476.32, 3544.45, -158575.81, -170134.13, 0.00, 0.00, 0.00
149, -4169.99, -4195.53, -4232.95, -4235.14, 3299.36, 3367.92, -158469.44, -170027.55, 0.00, 0.00, 0.00
150, -4199.47, -4217.71, -4261.52, -4258.99, 3354.86, 3423.37, -158498.34, -170057.86, 0.00, 0.00, 0.00
151, -4326.14, -4320.75, -4373.54, -4351.04, 3540.27, 3608.40, -158608.53, -170168.45, 0.00, 0.00, 0.00
152, -4309.80, -4308.54, -4358.37, -4337.87, 3507.08, 3575.09, -158592.70, -170151.22, 0.00, 0.00, 0.00
153, -4184.40, -4207.34, -4246.09, -4245.80, 3319.88, 3388.19, -158481.63, -170039.58, 0.00, 0.00, 0.00
154, -4183.33, -4205.41, -4247.10, -4247.32, 3328.55, 3396.75, -158483.05, -170042.28, 0.00, 0.00, 0.00
155, -4308.83, -4306.53, -4357.92, -4337.94, 3516.26, 3584.15, -158592.80, -170152.73, 0.00, 0.00, 0.00
156, -4323.83, -4319.09, -4370.68, -4347.77, 3530.03, 3597.98, -158604.03, -170162.84, 0.00, 0.00, 0.00
157, -4201.59, -4220.68, -4260.85, -4257.38, 3345.27, 3413.60, -158495.59, -170053.55, 0.00, 0.00, 0.00
158, -4169.87, -4194.55, -4234.69, -4237.24, 3306.47, 3374.89, -158469.80, -170028.84, 0.00, 0.00, 0.00
159, -4289.52, -4291.29, -4341.87, -4325.53, 3487.68, 3555.78, -158576.28, -170136.38, 0.00, 0.00, 0.00
160, -4339.99, -4333.15, -4386.44, -4362.03, 3553.10, 3621.12, -158618.45, -170177.61, 0.00, 0.00, 0.00
161, -4228.99, -4243.77, -4286.42, -4279.29, 3383.67, 3451.82, -158519.84, -170077.77, 0.00, 0.00, 0.00
162, -4166.57, -4192.99, -4232.55, -4236.21, 3297.66, 3365.95, -158466.27, -170025.11, 0.00, 0.00, 0.00
163, -4268.00, -4274.21, -4322.92, -4310.24, 3454.91, 3522.99, -158556.94, -170116.95, 0.00, 0.00, 0.00
164, -4346.45, -4338.27, -4392.10, -4366.90, 3563.58, 3631.49, -158623.53, -170182.88, 0.00, 0.00, 0.00
165, -4251.46, -4261.36, -4305.59, -4294.37, 3417.60, 3485.80, -158538.59, -170096.77, 0.00, 0.00, 0.00
166, -4163.10, -4190.04, -4228.44, -4232.35, 3290.67, 3359.00, -158461.50, -170020.19, 0.00, 0.00, 0.00
167, -4243.12, -4254.25, -4301.17, -4292.52, 3418.03, 3486.20, -158534.64, -170094.69, 0.00, 0.00, 0.00
168, -4347.01, -4339.23, -4392.97, -4368.00, 3565.73, 3633.59, -158623.86, -170183.66, 0.00, 0.00, 0.00
169, -4277.23, -4282.80, -4329.20, -4314.09, 3455.98, 3523.93, -158561.02, -170119.25, 0.00, 0.00, 0.00
170, -4169.09, -4195.67, -4234.40, -4237.47, 3297.40, 3365.59, -158466.28, -170024.50, 0.00, 0.00, 0.00
171, -4219.16, -4234.78, -4280.85, -4275.93, 3382.74, 3450.95, -158513.56, -170073.25, 0.00, 0.00, 0.00
172, -4338.63, -4331.97, -4385.46, -4361.65, 3555.45, 3623.35, -158615.95, -170175.88, 0.00, 0.00, 0.00
173, -4300.32, -4301.46, -4350.30, -4331.72, 3490.14, 3558.20, -158580.72, -170139.11, 0.00, 0.00, 0.00
174, -4178.32, -4203.00, -4241.94, -4243.23, 3309.62, 3377.97, -158473.13, -170031.25, 0.00, 0.00, 0.00
175, -4198.37, -4218.06, -4261.74, -4260.15, 3350.17, 3418.41, -158493.67, -170053.11, 0.00, 0.00, 0.00
176, -4325.26, -4320.90, -4373.16, -4351.44, 3536.94, 3604.84, -158603.69, -170163.69, 0.00, 0.00, 0.00
177, -4319.07, -4316.50, -4366.75, -4345.34, 3519.24, 3587.14, -158596.50, -170155.31, 0.00, 0.00, 0.00
178, -4194.84, -4216.39, -4256.11, -4254.65, 3332.80, 3401.02, -158486.77, -170044.75, 0.00, 0.00, 0.00
179, -4183.73, -4206.75, -4248.93, -4249.78, 3325.98, 3394.22, -158479.66, -170038.97, 0.00, 0.00, 0.00
180, -4306.51, -4305.59, -4356.65, -4337.67, 3510.14, 3578.16, -158586.56, -170147.03, 0.00, 0.00, 0.00
181, -4332.62, -4327.01, -4379.51, -4356.02, 3540.94, 3608.93, -158607.55, -170166.94, 0.00, 0.00, 0.00
182, -4211.60, -4229.35, -4270.26, -4265.58, 3358.44, 3426.68, -158499.72, -170057.92, 0.00, 0.00, 0.00
183, -4168.82, -4194.28, -4234.29, -4237.22, 3303.14, 3371.38, -158464.30, -170023.41, 0.00, 0.00, 0.00
184, -4282.24, -4285.57, -4335.43, -4320.23, 3476.70, 3544.67, -158565.53, -170125.80, 0.00, 0.00, 0.00
185, -4344.78, -4337.51, -4390.96, -4366.17, 3559.38, 3627.26, -158618.17, -170177.64, 0.00, 0.00, 0.00
186, -4238.49, -4251.73, -4295.27, -4286.77, 3397.00, 3465.06, -158523.75, -170081.92, 0.00, 0.00, 0.00
187, -4164.47, -4191.15, -4230.20, -4234.02, 3293.66, 3361.99, -158459.31, -170018.19, 0.00, 0.00, 0.00
188, -4261.36, -4269.09, -4317.22, -4305.82, 3443.67, 3511.70, -158546.69, -170106.97, 0.00, 0.00, 0.00
189, -4349.56, -4341.36, -4395.22, -4369.97, 3567.03, 3634.93, -158621.81, -170181.50, 0.00, 0.00, 0.00
190, -4262.34, -4270.73, -4316.05, -4303.47, 3432.36, 3500.48, -158543.69, -170101.98, 0.00, 0.00, 0.00
191, -4166.01, -4192.83, -4231.54, -4235.12, 3293.08, 3361.41, -158459.63, -170018.22, 0.00, 0.00, 0.00
192, -4235.34, -4247.88, -4293.90, -4286.30, 3405.49, 3473.64, -158522.91, -170083.00, 0.00, 0.00, 0.00
193, -4346.34, -4338.63, -4392.16, -4367.22, 3564.34, 3632.20, -158618.52, -170178.63, 0.00, 0.00, 0.00
194, -4288.34, -4292.12, -4339.43, -4322.96, 3470.85, 3538.80, -158566.42, -170124.94, 0.00, 0.00, 0.00
195, -4171.64, -4197.61, -4235.86, -4238.29, 3300.03, 3368.30, -158463.41, -170021.72, 0.00, 0.00, 0.00
196, -4209.55, -4226.65, -4270.70, -4266.86, 3367.69, 3435.80, -158498.94, -170058.69, 0.00, 0.00, 0.00
197, -4336.51, -4330.47, -4383.38, -4360.02, 3551.33, 3619.15, -158609.50, -170169.61, 0.00, 0.00, 0.00
198, -4308.43, -4308.23, -4357.85, -4338.23, 3501.65, 3569.64, -158583.39, -170142.13, 0.00, 0.00, 0.00
199, -4182.44, -4206.17, -4245.18, -4245.53, 3315.17, 3383.47, -158471.88, -170030.19, 0.00, 0.00, 0.00
200, -4190.66, -4211.60, -4254.07, -4253.40, 3338.05, 3406.38, -158481.55, -170041.19, 0.00, 0.00, 0.00
201, -4318.74, -4315.56, -4367.24, -4346.36, 3527.64, 3595.64, -158593.47, -170153.86, 0.00, 0.00, 0.00
202, -4323.14, -4319.59, -4370.53, -4348.33, 3526.05, 3594.03, -158595.48, -170154.55, 0.00, 0.00, 0.00
203, -4198.46, -4219.05, -4258.79, -4256.15, 3338.81, 3407.08, -158484.80, -170042.83, 0.00, 0.00, 0.00
204, -4177.27, -4201.55, -4241.80, -4243.30, 3315.19, 3383.38, -158467.97, -170027.13, 0.00, 0.00, 0.00
205, -4302.58, -4303.36, -4353.09, -4335.23, 3502.07, 3569.98, -158578.89, -170139.17, 0.00, 0.00, 0.00
206, -4340.69, -4334.43, -4387.47, -4363.40, 3550.78, 3618.72, -158610.86, -170170.23, 0.00, 0.00, 0.00
207, -4225.22, -4241.51, -4283.67, -4277.59, 3375.67, 3443.78, -158508.59, -170066.86, 0.00, 0.00, 0.00
208, -4168.42, -4194.64, -4234.74, -4237.94, 3300.73, 3368.92, -158460.19, -170019.30, 0.00, 0.00, 0.00
209, -4273.52, -4278.46, -4327.99, -4313.93, 3463.87, 3531.84, -158553.77, -170114.14, 0.00, 0.00, 0.00
210, -4346.65, -4338.94, -4392.77, -4367.55, 3562.40, 3630.15, -158615.84, -170175.56, 0.00, 0.00, 0.00
211, -4246.92, -4258.61, -4302.73, -4292.70, 3409.20, 3477.13, -158527.08, -170085.42, 0.00, 0.00, 0.00
212, -4162.57, -4189.92, -4228.19, -4232.01, 3290.13, 3358.37, -158453.05, -170011.88, 0.00, 0.00, 0.00
213, -4250.32, -4260.35, -4306.87, -4296.81, 3427.89, 3495.92, -158532.47, -170092.72, 0.00, 0.00, 0.00
214, -4347.32, -4339.55, -4393.28, -4368.00, 3565.15, 3632.96, -158615.94, -170175.83, 0.00, 0.00, 0.00
215, -4271.26, -4278.37, -4324.44, -4310.47, 3445.59, 3513.63, -158548.11, -170106.77, 0.00, 0.00, 0.00
216, -4167.01, -4194.01, -4232.48, -4235.86, 3294.18, 3362.44, -158456.63, -170015.55, 0.00, 0.00, 0.00
217, -4227.92, -4242.47, -4287.96, -4281.74, 3393.55, 3461.77, -158512.52, -170072.61, 0.00, 0.00, 0.00
218, -4343.55, -4336.62, -4390.33, -4365.79, 3560.52, 3628.38, -158612.27, -170172.23, 0.00, 0.00, 0.00
219, -4296.03, -4298.60, -4347.01, -4329.29, 3482.25, 3550.15, -158569.63, -170128.28, 0.00, 0.00, 0.00
220, -4177.38, -4202.82, -4242.12, -4243.84, 3307.19, 3375.38, -158465.41, -170023.97, 0.00, 0.00, 0.00
221, -4205.91, -4224.52, -4268.74, -4265.92, 3360.27, 3428.42, -158492.69, -170052.69, 0.00, 0.00, 0.00
222, -4332.84, -4327.90, -4380.54, -4357.79, 3545.66, 3613.52, -158602.81, -170163.25, 0.00, 0.00, 0.00
223, -4317.71, -4316.39, -4367.17, -4346.39, 3514.41, 3582.18, -158588.27, -170147.28, 0.00, 0.00, 0.00
224, -4190.59, -4213.33, -4253.36, -4252.64, 3325.81, 3393.96, -158475.58, -170033.84, 0.00, 0.00, 0.00
225, -4187.40, -4209.62, -4252.06, -4251.99, 3331.51, 3399.68, -158474.98, -170034.66, 0.00, 0.00, 0.00
226, -4315.56, -4313.75, -4365.27, -4345.20, 3521.47, 3589.49, -158587.41, -170148.00, 0.00, 0.00, 0.00
227, -4332.01, -4327.28, -4379.04, -4355.77, 3537.68, 3605.65, -158600.03, -170159.48, 0.00, 0.00, 0.00
228, -4209.55, -4228.50, -4269.43, -4265.32, 3353.19, 3421.43, -158491.66, -170050.09, 0.00, 0.00, 0.00
229, -4177.76, -4202.40, -4244.31, -4246.36, 3314.16, 3382.36, -158466.58, -170026.05, 0.00, 0.00, 0.00
230, -4295.40, -4297.30, -4347.77, -4331.12, 3491.77, 3559.74, -158569.86, -170130.52, 0.00, 0.00, 0.00
231, -4345.18, -4338.23, -4391.78, -4367.08, 3557.10, 3625.03, -158611.38, -170171.02, 0.00, 0.00, 0.00
232, -4234.14, -4248.75, -4291.91, -4284.16, 3388.14, 3456.27, -158513.00, -170071.48, 0.00, 0.00, 0.00
233, -4168.89, -4195.40, -4235.57, -4238.94, 3298.92, 3367.25, -158457.09, -170016.39, 0.00, 0.00, 0.00
234, -4270.99, -4277.59, -4326.00, -4313.40, 3456.14, 3524.20, -158548.30, -170108.86, 0.00, 0.00, 0.00
235, -4353.02, -4344.89, -4399.05, -4373.77, 3569.06, 3636.85, -158618.19, -170178.31, 0.00, 0.00, 0.00
236, -4259.33, -4269.03, -4314.24, -4302.76, 3424.69, 3492.75, -158534.38, -170093.08, 0.00, 0.00, 0.00
237, -4165.72, -4192.65, -4231.56, -4235.14, 3292.10, 3360.41, -158452.36, -170011.25, 0.00, 0.00, 0.00
238, -4244.10, -4255.26, -4302.22, -4293.30, 3417.22, 3485.40, -158524.02, -170084.39, 0.00, 0.00, 0.00
239, -4349.54, -4341.38, -4395.58, -4370.41, 3566.78, 3634.64, -158614.56, -170174.70, 0.00, 0.00, 0.00
240, -4283.29, -4288.43, -4335.77, -4320.46, 3461.30, 3529.23, -158555.33, -170114.00, 0.00, 0.00, 0.00
241, -4172.13, -4198.37, -4237.60, -4240.35, 3299.36, 3367.67, -158457.66, -170016.44, 0.00, 0.00, 0.00
242, -4220.32, -4235.81, -4282.06, -4276.94, 3382.29, 3450.42, -158503.14, -170063.38, 0.00, 0.00, 0.00
243, -4342.61, -4335.88, -4389.50, -4365.34, 3558.20, 3626.03, -158608.39, -170168.89, 0.00, 0.00, 0.00
244, -4304.72, -4305.53, -4354.72, -4335.84, 3493.98, 3561.88, -158573.34, -170132.42, 0.00, 0.00, 0.00
245, -4182.75, -4207.09, -4246.83, -4247.77, 3313.40, 3381.66, -158466.08, -170024.70, 0.00, 0.00, 0.00
246, -4200.72, -4220.57, -4264.13, -4262.34, 3350.41, 3418.57, -158484.17, -170044.17, 0.00, 0.00, 0.00
247, -4329.04, -4324.82, -4377.21, -4355.44, 3538.86, 3606.72, -158595.81, -170156.52, 0.00, 0.00, 0.00
248, -4323.34, -4320.48, -4372.09, -4350.68, 3522.55, 3590.38, -158589.25, -170148.61, 0.00, 0.00, 0.00
249, -4196.67, -4218.06, -4258.39, -4256.82, 3333.74, 3401.82, -158476.86, -170035.53, 0.00, 0.00, 0.00
250, -4181.09, -4204.12, -4246.29, -4247.35, 3321.65, 3389.87, -158465.56, -170025.28, 0.00, 0.00, 0.00
251, -4305.77, -4305.01, -4356.49, -4337.83, 3508.26, 3576.23, -158575.14, -170135.86, 0.00, 0.00, 0.00
252, -4333.09, -4327.45, -4379.58, -4355.84, 3540.58, 3608.42, -158596.81, -170156.36, 0.00, 0.00, 0.00
253, -4215.36, -4232.68, -4274.15, -4269.00, 3361.90, 3429.99, -158492.66, -170051.00, 0.00, 0.00, 0.00
254, -4168.96, -4194.39, -4234.81, -4237.60, 3301.60, 3369.79, -158453.28, -170012.61, 0.00, 0.00, 0.00
255, -4278.82, -4282.17, -4332.57, -4317.37, 3471.47, 3539.38, -158551.06, -170111.70, 0.00, 0.00, 0.00
0, -4342.50, -4334.99, -4388.74, -4363.87, 3556.03, 3623.82, -158604.64, -170164.52, 0.00, 0.00, 0.00
1, -4239.16, -4252.02, -4295.71, -4286.86, 3396.97, 3465.10, -158513.20, -170071.94, 0.00, 0.00, 0.00
2, -4164.17, -4190.88, -4230.04, -4233.73, 3292.12, 3360.38, -158447.83, -170007.23, 0.00, 0.00, 0.00
3, -4254.97, -4263.01, -4310.80, -4299.45, 3435.84, 3503.81, -158529.34, -170089.92, 0.00, 0.00, 0.00
4, -4344.87, -4336.51, -4390.42, -4364.87, 3561.62, 3629.34, -158606.08, -170166.22, 0.00, 0.00, 0.00
5, -4261.85, -4269.88, -4315.09, -4302.06, 3431.51, 3499.52, -158532.09, -170090.78, 0.00, 0.00, 0.00
6, -4165.00, -4191.82, -4230.43, -4233.91, 3290.89, 3359.20, -158447.42, -170006.38, 0.00, 0.00, 0.00
7, -4232.82, -4245.33, -4292.23, -4284.81, 3401.62, 3469.80, -158509.88, -170070.27, 0.00, 0.00, 0.00
8, -4344.42, -4336.48, -4390.80, -4365.83, 3561.50, 3629.34, -158605.81, -170166.19, 0.00, 0.00, 0.00
9, -4286.42, -4289.79, -4337.85, -4321.08, 3468.41, 3536.31, -158553.34, -170112.22, 0.00, 0.00, 0.00
10, -4169.90, -4195.67, -4234.16, -4236.42, 3297.40, 3365.57, -158450.42, -170009.19, 0.00, 0.00, 0.00
11, -4208.95, -4226.07, -4270.88, -4267.22, 3365.93, 3434.10, -158487.81, -170048.02, 0.00, 0.00, 0.00
12, -4335.93, -4329.67, -4383.33, -4360.04, 3549.68, 3617.58, -158598.16, -170158.81, 0.00, 0.00, 0.00
13, -4307.72, -4306.98, -4356.78, -4336.89, 3500.71, 3568.66, -158571.58, -170130.81, 0.00, 0.00, 0.00
14, -4184.49, -4207.89, -4247.66, -4247.81, 3317.13, 3385.33, -158463.11, -170021.72, 0.00, 0.00, 0.00
15, -4189.52, -4210.49, -4253.74, -4252.98, 3336.11, 3404.19, -158469.80, -170029.64, 0.00, 0.00, 0.00
16, -4315.81, -4312.55, -4364.58, -4343.61, 3523.89, 3591.68, -158579.78, -170140.41, 0.00, 0.00, 0.00
17, -4323.92, -4319.94, -4371.60, -4349.07, 3526.73, 3594.56, -158585.31, -170144.72, 0.00, 0.00, 0.00
18, -4200.14, -4220.25, -4260.96, -4258.07, 3340.65, 3408.77, -158475.88, -170034.56, 0.00, 0.00, 0.00
19, -4174.99, -4198.98, -4240.44, -4242.14, 3312.77, 3381.04, -158455.84, -170015.52, 0.00, 0.00, 0.00
20, -4294.89, -4295.47, -4346.16, -4328.42, 3494.34, 3562.29, -158561.44, -170122.09, 0.00, 0.00, 0.00
21, -4336.42, -4329.98, -4382.75, -4358.39, 3546.42, 3614.30, -158595.59, -170155.23, 0.00, 0.00, 0.00
22, -4222.74, -4238.58, -4280.72, -4274.15, 3373.17, 3441.27, -158495.08, -170053.72, 0.00, 0.00, 0.00
23, -4166.16, -4192.38, -4232.21, -4235.32, 3297.06, 3365.23, -158446.53, -170006.16, 0.00, 0.00, 0.00
24, -4270.55, -4275.64, -4325.22, -4311.25, 3459.40, 3527.42, -158539.64, -170100.34, 0.00, 0.00, 0.00
25, -4344.42, -4336.62, -4390.69, -4365.36, 3559.65, 3627.53, -158602.36, -170162.30, 0.00, 0.00, 0.00
26, -4246.99, -4258.21, -4302.89, -4292.56, 3409.18, 3477.22, -158515.77, -170074.38, 0.00, 0.00, 0.00
27, -4164.31, -4191.29, -4230.65, -4234.29, 3291.61, 3359.82, -158443.78, -170002.94, 0.00, 0.00, 0.00
28, -4248.11, -4257.81, -4306.04, -4295.94, 3425.23, 3493.26, -158519.89, -170080.34, 0.00, 0.00, 0.00
29, -4344.89, -4336.60, -4390.80, -4365.34, 3562.00, 3629.83, -158601.95, -170162.06, 0.00, 0.00, 0.00
30, -4268.53, -4275.02, -4321.20, -4306.94, 3442.55, 3510.56, -158533.47, -170092.19, 0.00, 0.00, 0.00
31, -4165.14, -4191.71, -4230.20, -4233.49, 3291.32, 3359.49, -158442.77, -170001.70, 0.00, 0.00, 0.00
32, -4224.64, -4238.90, -4285.70, -4279.69, 3389.93, 3458.11, -158498.72, -170059.02, 0.00, 0.00, 0.00
33, -4341.18, -4333.94, -4388.12, -4363.87, 3557.64, 3625.43, -158598.58, -170159.05, 0.00, 0.00, 0.00
34, -4295.36, -4297.50, -4346.05, -4328.42, 3481.35, 3549.19, -158556.77, -170115.86, 0.00, 0.00, 0.00
35, -4177.14, -4202.35, -4241.47, -4243.32, 3306.49, 3374.69, -158452.98, -170011.81, 0.00, 0.00, 0.00
36, -4206.64, -4225.19, -4269.61, -4267.10, 3359.96, 3428.04, -158481.66, -170041.88, 0.00, 0.00, 0.00
37, -4332.86, -4327.72, -4380.58, -4358.23, 3544.74, 3612.58, -158590.73, -170151.33, 0.00, 0.00, 0.00
38, -4318.85, -4316.99, -4367.84, -4347.30, 3515.37, 3583.34, -158577.06, -170136.31, 0.00, 0.00, 0.00
39, -4192.65, -4215.00, -4255.03, -4254.48, 3327.57, 3395.81, -158465.48, -170024.13, 0.00, 0.00, 0.00
40, -4189.07, -4211.11, -4253.81, -4254.27, 3332.44, 3400.71, -158464.77, -170024.73, 0.00, 0.00, 0.00
41, -4317.60, -4315.61, -4366.88, -4347.32, 3522.41, 3590.47, -158577.11, -170138.03, 0.00, 0.00, 0.00
42, -4336.28, -4331.30, -4383.78, -4360.89, 3541.70, 3609.76, -158591.91, -170151.55, 0.00, 0.00, 0.00
43, -4210.24, -4228.82, -4270.05, -4266.30, 3353.61, 3421.85, -158479.63, -170038.23, 0.00, 0.00, 0.00
44, -4170.34, -4195.13, -4235.34, -4237.76, 3304.46, 3372.77, -158445.34, -170005.00, 0.00, 0.00, 0.00
45, -4287.31, -4289.34, -4339.17, -4322.80, 3482.58, 3550.64, -158549.33, -170110.11, 0.00, 0.00, 0.00
46, -4343.03, -4335.84, -4389.19, -4364.65, 3554.80, 3622.64, -158596.55, -170156.38, 0.00, 0.00, 0.00
47, -4234.20, -4248.26, -4291.29, -4283.58, 3388.17, 3456.23, -158499.97, -170058.56, 0.00, 0.00, 0.00
48, -4168.04, -4194.44, -4234.69, -4238.23, 3297.46, 3365.77, -158443.38, -170002.75, 0.00, 0.00, 0.00
49, -4266.08, -4272.67, -4321.84, -4309.51, 3450.73, 3518.70, -158530.95, -170091.63, 0.00, 0.00, 0.00
50, -4348.98, -4340.60, -4394.89, -4369.52, 3564.92, 3632.69, -158601.09, -170161.19, 0.00, 0.00, 0.00
51, -4256.60, -4265.92, -4310.89, -4299.22, 3422.12, 3490.25, -158518.20, -170076.78, 0.00, 0.00, 0.00
52, -4163.64, -4190.53, -4228.97, -4232.68, 3289.28, 3357.52, -158436.61, -169995.66, 0.00, 0.00, 0.00
53, -4239.92, -4250.99, -4298.24, -4289.68, 3412.06, 3480.14, -158506.55, -170067.06, 0.00, 0.00, 0.00
54, -4347.62, -4339.35, -4393.59, -4368.51, 3564.39, 3632.29, -158599.19, -170159.53, 0.00, 0.00, 0.00
55, -4282.91, -4287.62, -4335.03, -4319.59, 3460.81, 3528.85, -158540.97, -170100.02, 0.00, 0.00, 0.00
56, -4169.32, -4195.53, -4234.05, -4236.88, 3295.74, 3364.05, -158440.94, -169999.97, 0.00, 0.00, 0.00
57, -4216.23, -4232.15, -4277.94, -4273.21, 3376.81, 3444.98, -158485.23, -170045.56, 0.00, 0.00, 0.00
58, -4337.51, -4330.92, -4384.65, -4360.74, 3552.36, 3620.29, -158589.52, -170149.91, 0.00, 0.00, 0.00
59, -4302.20, -4302.89, -4352.20, -4333.31, 3491.63, 3559.58, -158556.92, -170115.97, 0.00, 0.00, 0.00
60, -4180.07, -4204.34, -4243.52, -4244.55, 3310.27, 3378.53, -158449.25, -170008.19, 0.00, 0.00, 0.00
61, -4198.22, -4218.15, -4262.37, -4260.89, 3347.87, 3416.04, -158468.47, -170028.63, 0.00, 0.00, 0.00
62, -4327.88, -4323.72, -4376.61, -4354.97, 3537.48, 3605.38, -158580.84, -170141.42, 0.00, 0.00, 0.00
63, -4321.82, -4318.78, -4369.92, -4348.15, 3521.27, 3589.18, -158573.53, -170133.03, 0.00, 0.00, 0.00
64, -4195.58, -4216.63, -4256.93, -4255.15, 3332.94, 3401.22, -158461.95, -170021.09, 0.00, 0.00, 0.00
65, -4181.27, -4204.41, -4245.85, -4247.01, 3320.69, 3388.97, -158451.22, -170011.28, 0.00, 0.00, 0.00
66, -4307.72, -4307.16, -4357.83, -4339.26, 3508.98, 3576.97, -158562.05, -170122.61, 0.00, 0.00, 0.00
67, -4337.11, -4331.23, -4384.21, -4360.58, 3544.79, 3612.65, -158586.20, -170145.89, 0.00, 0.00, 0.00
68, -4218.20, -4235.34, -4277.27, -4272.00, 3364.99, 3433.14, -158481.19, -170040.16, 0.00, 0.00, 0.00
69, -4169.85, -4195.22, -4235.74, -4238.56, 3302.05, 3370.31, -158440.02, -169999.81, 0.00, 0.00, 0.00
70, -4283.31, -4286.75, -4337.02, -4321.91, 3474.78, 3542.82, -158540.83, -170101.33, 0.00, 0.00, 0.00
71, -4347.26, -4339.50, -4393.44, -4368.40, 3560.61, 3628.45, -158594.61, -170154.34, 0.00, 0.00, 0.00
72, -4239.46, -4251.86, -4295.65, -4286.60, 3397.53, 3465.59, -158498.47, -170057.47, 0.00, 0.00, 0.00
73, -4164.26, -4190.88, -4230.22, -4233.84, 3291.83, 3360.07, -158433.42, -169992.98, 0.00, 0.00, 0.00
74, -4257.60, -4265.76, -4314.33, -4303.20, 3437.94, 3505.89, -158517.83, -170078.33, 0.00, 0.00, 0.00
75, -4352.82, -4344.55, -4398.98, -4373.54, 3569.33, 3637.05, -158599.23, -170159.33, 0.00, 0.00, 0.00
76, -4269.56, -4277.36, -4323.63, -4310.62, 3439.55, 3507.52, -158524.88, -170083.98, 0.00, 0.00, 0.00
77, -4166.79, -4193.57, -4232.44, -4235.88, 3292.55, 3360.79, -158434.61, -169993.97, 0.00, 0.00, 0.00
78, -4233.71, -4246.67, -4293.28, -4285.95, 3401.40, 3469.57, -158495.86, -170056.31, 0.00, 0.00, 0.00
79, -4344.37, -4336.69, -4390.66, -4365.77, 3560.43, 3628.36, -158590.34, -170150.56, 0.00, 0.00, 0.00
80, -4288.54, -4291.83, -4339.93, -4323.12, 3470.56, 3538.57, -158540.41, -170099.42, 0.00, 0.00, 0.00
81, -4173.16, -4198.73, -4237.85, -4240.13, 3300.75, 3369.06, -158439.19, -169998.31, 0.00, 0.00, 0.00
82, -4210.58, -4227.81, -4273.50, -4269.92, 3367.42, 3435.64, -158475.36, -170035.69, 0.00, 0.00, 0.00
83, -4334.16, -4328.24, -4381.66, -4358.41, 3547.42, 3615.37, -158581.36, -170141.83, 0.00, 0.00, 0.00
84, -4310.71, -4309.91, -4360.02, -4340.02, 3503.79, 3571.79, -158559.22, -170118.55, 0.00, 0.00, 0.00
85, -4186.75, -4209.91, -4249.78, -4249.78, 3319.19, 3387.43, -158450.08, -170009.17, 0.00, 0.00, 0.00
86, -4191.11, -4212.32, -4255.41, -4254.88, 3336.53, 3404.80, -158456.27, -170016.30, 0.00, 0.00, 0.00
87, -4320.08, -4317.06, -4368.92, -4348.22, 3526.66, 3594.67, -158568.55, -170128.86, 0.00, 0.00, 0.00
88, -4330.00, -4325.82, -4377.63, -4355.15, 3532.60, 3600.55, -158575.78, -170135.08, 0.00, 0.00, 0.00
89, -4204.79, -4224.48, -4265.43, -4262.32, 3345.27, 3413.51, -158465.08, -170023.95, 0.00, 0.00, 0.00
90, -4177.27, -4201.48, -4243.08, -4244.80, 3314.27, 3382.44, -158442.86, -170002.73, 0.00, 0.00, 0.00
91, -4299.63, -4300.56, -4351.30, -4334.00, 3497.65, 3565.55, -158550.34, -170110.98, 0.00, 0.00, 0.00
92, -4341.31, -4334.83, -4387.92, -4363.69, 3550.95, 3618.86, -158584.89, -170144.53, 0.00, 0.00, 0.00
93, -4226.80, -4242.41, -4284.85, -4278.39, 3377.21, 3445.43, -158483.72, -170042.70, 0.00, 0.00, 0.00
94, -4168.91, -4195.11, -4235.48, -4238.76, 3299.30, 3367.49, -158434.28, -169994.08, 0.00, 0.00, 0.00
95, -4276.38, -4281.63, -4331.12, -4317.51, 3463.69, 3531.73, -158529.81, -170090.44, 0.00, 0.00, 0.00
96, -4350.70, -4342.79, -4397.21, -4371.91, 3565.26, 3633.19, -158592.80, -170152.69, 0.00, 0.00, 0.00
97, -4252.24, -4263.37, -4308.32, -4297.86, 3414.32, 3482.47, -158505.36, -170064.41, 0.00, 0.00, 0.00
98, -4166.88, -4193.88, -4233.29, -4236.97, 3293.35, 3361.68, -158431.08, -169990.58, 0.00, 0.00, 0.00
99, -4249.69, -4259.80, -4306.94, -4297.15, 3424.62, 3492.71, -158505.20, -170065.75, 0.00, 0.00, 0.00
100, -4347.06, -4338.97, -4393.06, -4367.73, 3563.36, 3631.17, -158588.28, -170148.42, 0.00, 0.00, 0.00
101, -4272.29, -4278.62, -4325.31, -4310.80, 3446.39, 3514.45, -158521.56, -170080.67, 0.00, 0.00, 0.00
102, -4164.40, -4191.22, -4229.31, -4232.33, 3289.91, 3358.13, -158426.48, -169985.72, 0.00, 0.00, 0.00
103, -4221.66, -4236.44, -4282.57, -4276.60, 3385.19, 3453.21, -158480.08, -170040.47, 0.00, 0.00, 0.00
104, -4341.87, -4334.92, -4388.88, -4364.36, 3557.37, 3625.21, -158583.86, -170144.22, 0.00, 0.00, 0.00
105, -4296.25, -4298.33, -4346.83, -4328.71, 3482.20, 3550.17, -158542.23, -170101.38, 0.00, 0.00, 0.00
106, -4174.64, -4200.00, -4238.38, -4239.90, 3303.34, 3371.56, -158434.66, -169993.73, 0.00, 0.00, 0.00
107, -4197.12, -4216.37, -4260.00, -4257.58, 3349.07, 3417.13, -158456.58, -170016.95, 0.00, 0.00, 0.00
108, -4324.77, -4320.10, -4372.94, -4350.48, 3536.09, 3603.84, -158567.72, -170128.47, 0.00, 0.00, 0.00
109, -4312.25, -4310.49, -4360.62, -4339.41, 3508.75, 3576.64, -158555.02, -170114.38, 0.00, 0.00, 0.00
110, -4187.13, -4209.64, -4248.75, -4247.64, 3321.56, 3389.84, -158444.27, -170003.16, 0.00, 0.00, 0.00
111, -4179.22, -4201.93, -4243.34, -4243.57, 3320.53, 3388.77, -158438.97, -169999.11, 0.00, 0.00, 0.00
112, -4307.02, -4305.55, -4357.23, -4337.38, 3511.08, 3579.03, -158551.56, -170112.30, 0.00, 0.00, 0.00
113, -4330.52, -4325.60, -4378.13, -4354.75, 3536.00, 3603.91, -158570.75, -170130.31, 0.00, 0.00, 0.00
114, -4208.27, -4226.89, -4268.09, -4263.77, 3352.07, 3420.24, -158462.44, -170021.28, 0.00, 0.00, 0.00
115, -4169.54, -4194.95, -4234.78, -4237.09, 3303.30, 3371.47, -158429.53, -169989.34, 0.00, 0.00, 0.00
116, -4285.30, -4288.20, -4337.71, -4321.40, 3479.52, 3547.45, -158532.00, -170092.75, 0.00, 0.00, 0.00
117, -4338.32, -4331.48, -4384.76, -4359.80, 3550.33, 3618.23, -158576.70, -170136.48, 0.00, 0.00, 0.00
118, -4229.26, -4243.61, -4286.60, -4278.50, 3383.96, 3452.14, -158480.14, -170038.98, 0.00, 0.00, 0.00
119, -4162.39, -4189.32, -4228.26, -4231.77, 3290.80, 3359.11, -158422.09, -169981.72, 0.00, 0.00, 0.00
120, -4258.61, -4265.85, -4314.49, -4302.08, 3442.37, 3510.43, -158508.44, -170069.14, 0.00, 0.00, 0.00
121, -4343.52, -4335.59, -4389.70, -4364.04, 3559.76, 3627.67, -158580.75, -170140.94, 0.00, 0.00, 0.00
122, -4252.73, -4262.30, -4306.98, -4294.93, 3419.62, 3487.74, -158499.83, -170058.81, 0.00, 0.00, 0.00
123, -4157.65, -4185.14, -4222.04, -4225.84, 3283.25, 3351.67, -158415.64, -169975.05, 0.00, 0.00, 0.00
124, -4234.67, -4246.74, -4292.85, -4284.45, 3406.03, 3474.29, -158486.58, -170047.02, 0.00, 0.00, 0.00
125, -4341.27, -4333.67, -4387.56, -4362.23, 3558.49, 3626.32, -158578.33, -170138.44, 0.00, 0.00, 0.00
126, -4275.84, -4281.01, -4327.86, -4311.94, 3454.93, 3522.95, -158519.48, -170078.38, 0.00, 0.00, 0.00
127, -4164.76, -4191.44, -4229.24, -4231.88, 3291.45, 3359.74, -158421.41, -169980.52, 0.00, 0.00, 0.00
128, -4209.71, -4226.29, -4270.95, -4266.30, 3369.55, 3437.72, -158463.69, -170024.06, 0.00, 0.00, 0.00
129, -4331.08, -4324.77, -4378.19, -4354.21, 3546.35, 3614.30, -158568.80, -170129.17, 0.00, 0.00, 0.00
130, -4297.06, -4297.77, -4346.86, -4327.54, 3487.94, 3555.92, -158537.56, -170096.75, 0.00, 0.00, 0.00
131, -4174.61, -4199.29, -4237.71, -4238.47, 3305.67, 3374.00, -158429.31, -169988.39, 0.00, 0.00, 0.00
132, -4189.23, -4209.84, -4252.53, -4251.06, 3337.74, 3406.03, -158444.25, -170004.56, 0.00, 0.00, 0.00
133, -4318.27, -4314.58, -4367.17, -4345.49, 3528.09, 3595.97, -158557.25, -170117.98, 0.00, 0.00, 0.00
134, -4319.00, -4316.08, -4367.37, -4345.31, 3519.57, 3587.54, -158556.36, -170115.92, 0.00, 0.00, 0.00
135, -4193.95, -4215.25, -4255.21, -4253.07, 3332.06, 3400.39, -158445.67, -170004.70, 0.00, 0.00, 0.00
136, -4174.99, -4198.75, -4240.22, -4241.29, 3314.61, 3383.03, -158430.92, -169991.09, 0.00, 0.00, 0.00
137, -4297.26, -4296.99, -4348.44, -4329.80, 3499.08, 3567.18, -158538.30, -170099.03, 0.00, 0.00, 0.00
138, -4330.31, -4324.64, -4377.21, -4353.09, 3539.02, 3606.97, -158565.30, -170125.06, 0.00, 0.00, 0.00
139, -4213.50, -4230.67, -4272.00, -4266.37, 3361.34, 3429.58, -158461.97, -170020.91, 0.00, 0.00, 0.00
140, -4165.14, -4190.93, -4230.54, -4233.44, 3297.11, 3365.46, -158420.64, -169980.47, 0.00, 0.00, 0.00
141, -4275.93, -4280.00, -4329.85, -4314.98, 3467.38, 3535.44, -158519.59, -170080.31, 0.00, 0.00, 0.00
142, -4341.42, -4334.03, -4387.94, -4362.66, 3555.72, 3623.62, -158574.89, -170134.83, 0.00, 0.00, 0.00
143, -4238.76, -4251.39, -4295.02, -4285.37, 3397.98, 3466.26, -158483.73, -170042.72, 0.00, 0.00, 0.00
144, -4162.39, -4189.63, -4228.59, -4232.17, 3290.31, 3358.77, -158417.41, -169977.13, 0.00, 0.00, 0.00
145, -4252.69, -4261.76, -4309.89, -4298.91, 3432.74, 3500.82, -158498.86, -170059.58, 0.00, 0.00, 0.00
146, -4343.93, -4336.10, -4390.17, -4364.56, 3561.37, 3629.21, -158576.50, -170136.67, 0.00, 0.00, 0.00
147, -4260.60, -4268.67, -4313.71, -4300.07, 3432.29, 3500.35, -158501.94, -170060.89, 0.00, 0.00, 0.00
148, -4163.19, -4190.55, -4228.97, -4232.28, 3289.82, 3358.10, -158416.95, -169976.20, 0.00, 0.00, 0.00
149, -4231.05, -4244.60, -4291.96, -4284.81, 3399.43, 3467.67, -158480.08, -170040.58, 0.00, 0.00, 0.00
150, -4345.18, -4337.83, -4392.34, -4367.37, 3562.24, 3630.21, -158577.73, -170138.08, 0.00, 0.00, 0.00
151, -4288.09, -4291.40, -4339.61, -4322.20, 3471.54, 3539.60, -158525.86, -170084.98, 0.00, 0.00, 0.00
152, -4171.08, -4197.03, -4236.01, -4237.91, 3299.65, 3367.98, -158422.86, -169981.97, 0.00, 0.00, 0.00
153, -4206.37, -4224.39, -4269.32, -4265.65, 3362.98, 3431.24, -158456.70, -170017.06, 0.00, 0.00, 0.00
154, -4331.21, -4325.80, -4379.20, -4355.98, 3545.28, 3613.18, -158564.61, -170125.31, 0.00, 0.00, 0.00
155, -4308.81, -4308.16, -4358.66, -4338.38, 3503.68, 3571.67, -158543.42, -170102.89, 0.00, 0.00, 0.00
156, -4184.49, -4207.98, -4247.97, -4247.77, 3318.27, 3386.49, -158433.83, -169992.91, 0.00, 0.00, 0.00
157, -4188.02, -4209.77, -4252.87, -4252.42, 3333.90, 3402.14, -158439.27, -169999.47, 0.00, 0.00, 0.00
158, -4317.26, -4314.94, -4367.26, -4346.61, 3524.74, 3592.73, -158552.20, -170112.89, 0.00, 0.00, 0.00
159, -4329.49, -4325.71, -4378.28, -4355.55, 3533.48, 3601.34, -158561.34, -170120.95, 0.00, 0.00, 0.00
160, -4205.73, -4225.84, -4267.33, -4264.11, 3347.73, 3415.93, -158452.16, -170011.09, 0.00, 0.00, 0.00
161, -4175.86, -4200.70, -4242.03, -4243.81, 3313.27, 3381.51, -158427.38, -169987.36, 0.00, 0.00, 0.00
162, -4296.99, -4298.73, -4348.93, -4331.61, 3495.23, 3563.25, -158533.81, -170094.63, 0.00, 0.00, 0.00
163, -4342.30, -4336.10, -4389.79, -4365.25, 3553.55, 3621.50, -158571.97, -170131.91, 0.00, 0.00, 0.00
164, -4228.35, -4244.06, -4287.00, -4280.02, 3380.34, 3448.61, -158471.06, -170030.09, 0.00, 0.00, 0.00
165, -4166.57, -4193.16, -4233.40, -4236.48, 3297.28, 3365.59, -158417.73, -169977.66, 0.00, 0.00, 0.00
166, -4268.94, -4274.91, -4324.35, -4310.65, 3456.67, 3524.78, -158508.83, -170069.55, 0.00, 0.00, 0.00
167, -4346.72, -4339.12, -4393.35, -4367.87, 3562.51, 3630.44, -158574.89, -170134.88, 0.00, 0.00, 0.00
168, -4250.61, -4261.61, -4306.58, -4295.60, 3414.43, 3482.58, -158489.67, -170048.75, 0.00, 0.00, 0.00
169, -4162.77, -4190.33, -4228.97, -4232.57, 3289.80, 3358.08, -158412.64, -169972.27, 0.00, 0.00, 0.00
170, -4244.35, -4255.15, -4302.31, -4292.74, 3419.57, 3487.72, -158486.00, -170046.61, 0.00, 0.00, 0.00
171, -4343.41, -4335.61, -4389.82, -4364.38, 3560.74, 3628.60, -158570.78, -170131.02, 0.00, 0.00, 0.00
172, -4271.35, -4277.72, -4324.01, -4309.10, 3446.93, 3515.10, -158506.39, -170065.61, 0.00, 0.00, 0.00
173, -4163.97, -4190.91, -4228.75, -4231.77, 3290.18, 3358.53, -158411.66, -169971.16, 0.00, 0.00, 0.00
174, -4218.82, -4234.05, -4279.53, -4273.70, 3382.18, 3450.39, -158462.80, -170023.39, 0.00, 0.00, 0.00
175, -4339.97, -4333.18, -4386.95, -4362.52, 3556.07, 3623.96, -158567.77, -170128.17, 0.00, 0.00, 0.00
176, -4297.03, -4298.89, -4347.73, -4329.40, 3484.70, 3552.65, -158528.83, -170088.03, 0.00, 0.00, 0.00
177, -4175.98, -4201.14, -4240.15, -4241.47, 3305.93, 3374.17, -158421.98, -169981.08, 0.00, 0.00, 0.00
178, -4198.86, -4218.49, -4261.85, -4259.44, 3350.73, 3418.92, -158443.89, -170004.23, 0.00, 0.00, 0.00
179, -4325.24, -4320.73, -4373.68, -4351.19, 3536.69, 3604.67, -158553.81, -170114.47, 0.00, 0.00, 0.00
180, -4315.09, -4313.15, -4364.27, -4342.81, 3512.89, 3580.84, -158543.69, -170103.11, 0.00, 0.00, 0.00
181, -4191.87, -4214.24, -4254.45, -4253.11, 3327.86, 3396.15, -158435.19, -169994.31, 0.00, 0.00, 0.00
182, -4181.61, -4204.54, -4246.81, -4247.21, 3323.82, 3392.12, -158427.92, -169988.30, 0.00, 0.00, 0.00
183, -4307.34, -4306.06, -4357.96, -4338.34, 3511.75, 3579.65, -158537.78, -170098.61, 0.00, 0.00, 0.00
184, -4330.69, -4325.73, -4378.42, -4355.04, 3537.36, 3605.27, -158556.50, -170116.23, 0.00, 0.00, 0.00
185, -4209.97, -4228.44, -4270.23, -4265.67, 3355.06, 3423.35, -158449.97, -170009.00, 0.00, 0.00, 0.00
186, -4169.92, -4195.40, -4235.88, -4238.20, 3304.33, 3372.52, -158415.95, -169976.00, 0.00, 0.00, 0.00
187, -4287.31, -4290.33, -4340.57, -4324.53, 3481.95, 3549.86, -158519.97, -170080.98, 0.00, 0.00, 0.00
188, -4341.45, -4334.36, -4388.18, -4363.04, 3554.53, 3622.39, -158565.48, -170125.64, 0.00, 0.00, 0.00
189, -4230.22, -4244.19, -4287.27, -4278.86, 3386.16, 3454.33, -158466.42, -170025.67, 0.00, 0.00, 0.00
190, -4162.10, -4189.12, -4228.03, -4231.50, 3290.91, 3359.24, -158407.41, -169967.31, 0.00, 0.00, 0.00
191, -4260.18, -4267.55, -4316.19, -4304.07, 3443.55, 3511.59, -158495.67, -170056.47, 0.00, 0.00, 0.00
192, -4344.55, -4336.42, -4390.58, -4365.12, 3561.21, 3629.05, -158567.25, -170127.48, 0.00, 0.00, 0.00
193, -4254.63, -4263.80, -4308.79, -4296.68, 3422.57, 3490.65, -158487.09, -170046.20, 0.00, 0.00, 0.00
194, -4161.38, -4188.69, -4226.78, -4230.54, 3287.76, 3356.05, -158405.33, -169964.89, 0.00, 0.00, 0.00
195, -4234.52, -4246.74, -4293.68, -4285.63, 3406.07, 3474.20, -158472.36, -170033.09, 0.00, 0.00, 0.00
196, -4343.52, -4335.81, -4389.99, -4365.00, 3560.92, 3628.81, -158565.97, -170126.47, 0.00, 0.00, 0.00
197, -4280.47, -4284.99, -4332.42, -4316.52, 3460.36, 3528.54, -158509.22, -170068.52, 0.00, 0.00, 0.00
198, -4164.96, -4191.29, -4229.13, -4231.77, 3291.83, 3360.20, -158406.86, -169966.28, 0.00, 0.00, 0.00
199, -4209.21, -4225.80, -4270.64, -4266.14, 3368.52, 3436.76, -158448.42, -170009.13, 0.00, 0.00, 0.00
200, -4334.76, -4328.53, -4382.13, -4358.39, 3550.08, 3617.99, -158557.61, -170118.31, 0.00, 0.00, 0.00
201, -4304.48, -4304.81, -4354.16, -4334.61, 3496.10, 3564.16, -158529.88, -170089.42, 0.00, 0.00, 0.00
202, -4177.34, -4201.68, -4239.92, -4240.62, 3308.73, 3377.15, -158416.98, -169976.34, 0.00, 0.00, 0.00
203, -4189.25, -4209.97, -4252.80, -4251.61, 3337.81, 3406.14, -158429.94, -169990.38, 0.00, 0.00, 0.00
204, -4316.14, -4312.52, -4365.23, -4343.97, 3525.81, 3593.78, -158540.53, -170101.42, 0.00, 0.00, 0.00
205, -4317.46, -4314.29, -4365.56, -4343.48, 3518.86, 3586.78, -158540.11, -170099.88, 0.00, 0.00, 0.00
206, -4193.66, -4214.80, -4254.68, -4252.55, 3332.71, 3400.88, -158430.77, -169990.06, 0.00, 0.00, 0.00
207, -4174.57, -4198.46, -4239.30, -4240.75, 3313.74, 3381.91, -158415.50, -169975.83, 0.00, 0.00, 0.00
208, -4299.51, -4299.63, -4350.86, -4332.75, 3501.09, 3569.06, -158525.92, -170086.80, 0.00, 0.00, 0.00
209, -4333.15, -4327.45, -4380.38, -4356.56, 3542.68, 3610.54, -158553.45, -170113.41, 0.00, 0.00, 0.00
210, -4213.01, -4230.11, -4271.28, -4265.83, 3361.88, 3430.01, -158446.53, -170005.75, 0.00, 0.00, 0.00
211, -4162.14, -4188.45, -4227.12, -4230.40, 3294.13, 3362.51, -158402.81, -169962.88, 0.00, 0.00, 0.00
212, -4271.28, -4275.80, -4325.35, -4310.89, 3462.64, 3530.70, -158500.42, -170061.36, 0.00, 0.00, 0.00
213, -4338.74, -4331.57, -4385.10, -4360.15, 3553.73, 3621.61, -158557.59, -170117.80, 0.00, 0.00, 0.00
214, -4236.82, -4249.38, -4293.10, -4283.69, 3397.20, 3465.39, -158467.14, -170026.41, 0.00, 0.00, 0.00
215, -4161.76, -4189.19, -4228.08, -4231.88, 3289.84, 3358.19, -158402.20, -169962.02, 0.00, 0.00, 0.00
216, -4248.53, -4257.90, -4305.88, -4295.36, 3428.36, 3496.46, -158480.17, -170041.05, 0.00, 0.00, 0.00
217, -4342.16, -4334.43, -4388.56, -4363.22, 3559.98, 3627.91, -158560.19, -170120.50, 0.00, 0.00, 0.00
218, -4264.24, -4272.13, -4317.91, -4304.43, 3437.05, 3505.20, -158491.19, -170050.36, 0.00, 0.00, 0.00
219, -4160.98, -4188.27, -4225.89, -4229.37, 3287.58, 3355.85, -158399.75, -169959.33, 0.00, 0.00, 0.00
220, -4226.07, -4240.04, -4285.95, -4279.29, 3393.46, 3461.55, -158459.67, -170020.28, 0.00, 0.00, 0.00
221, -4344.35, -4337.15, -4391.47, -4366.90, 3562.00, 3629.77, -158562.23, -170122.72, 0.00, 0.00, 0.00
222, -4289.79, -4292.99, -4341.27, -4323.99, 3474.49, 3542.44, -158512.84, -170072.25, 0.00, 0.00, 0.00
223, -4169.92, -4195.82, -4233.96, -4236.04, 3298.58, 3366.82, -158406.66, -169965.92, 0.00, 0.00, 0.00
224, -4202.73, -4221.17, -4264.69, -4261.43, 3358.30, 3426.48, -158437.81, -169998.27, 0.00, 0.00, 0.00
225, -4330.05, -4324.88, -4377.75, -4354.59, 3543.89, 3611.71, -158548.66, -170109.36, 0.00, 0.00, 0.00
226, -4309.44, -4308.63, -4359.42, -4339.01, 3504.93, 3572.88, -158529.34, -170088.81, 0.00, 0.00, 0.00
227, -4182.35, -4205.73, -4245.04, -4244.91, 3316.48, 3384.75, -158416.67, -169975.78, 0.00, 0.00, 0.00
228, -4183.78, -4205.79, -4248.04, -4247.97, 3328.91, 3397.22, -158420.16, -169980.52, 0.00, 0.00, 0.00
229, -4310.67, -4308.43, -4360.67, -4340.42, 3518.14, 3586.05, -158531.33, -170092.28, 0.00, 0.00, 0.00
230, -4323.41, -4319.50, -4371.38, -4348.58, 3528.20, 3596.08, -158540.72, -170100.44, 0.00, 0.00, 0.00
231, -4198.44, -4218.51, -4258.45, -4255.19, 3340.76, 3408.93, -158429.53, -169988.63, 0.00, 0.00, 0.00
232, -4169.43, -4194.37, -4234.85, -4237.00, 3306.58, 3374.71, -158406.16, -169966.33, 0.00, 0.00, 0.00
233, -4290.33, -4291.96, -4343.06, -4326.11, 3489.26, 3557.19, -158513.52, -170074.55, 0.00, 0.00, 0.00
234, -4338.63, -4332.30, -4385.64, -4361.18, 3550.78, 3618.59, -158553.69, -170113.83, 0.00, 0.00, 0.00
235, -4225.15, -4240.77, -4283.13, -4276.13, 3378.22, 3446.39, -158453.02, -170012.22, 0.00, 0.00, 0.00
236, -4162.43, -4189.25, -4228.35, -4231.77, 3293.04, 3361.32, -158398.53, -169958.61, 0.00, 0.00, 0.00
237, -4263.28, -4269.41, -4318.67, -4305.59, 3451.02, 3519.04, -158488.92, -170049.98, 0.00, 0.00, 0.00
238, -4339.14, -4331.48, -4385.28, -4359.98, 3555.69, 3623.53, -158552.89, -170113.27, 0.00, 0.00, 0.00
239, -4244.26, -4255.30, -4299.22, -4288.34, 3409.07, 3477.17, -158468.45, -170027.72, 0.00, 0.00, 0.00
240, -4157.89, -4185.68, -4223.12, -4227.07, 3285.08, 3353.39, -158392.70, -169952.42, 0.00, 0.00, 0.00
241, -4237.87, -4249.04, -4295.83, -4286.68, 3413.58, 3481.78, -158465.64, -170026.55, 0.00, 0.00, 0.00
242, -4337.78, -4330.11, -4384.00, -4358.70, 3556.25, 3624.20, -158551.17, -170111.67, 0.00, 0.00, 0.00
243, -4268.27, -4274.52, -4320.77, -4305.88, 3445.74, 3513.83, -158489.27, -170048.56, 0.00, 0.00, 0.00
244, -4163.39, -4190.57, -4228.57, -4231.83, 3290.82, 3359.11, -158397.13, -169956.64, 0.00, 0.00, 0.00
245, -4214.35, -4230.00, -4275.20, -4270.01, 3377.66, 3445.95, -158444.00, -170004.59, 0.00, 0.00, 0.00
246, -4333.67, -4327.10, -4380.92, -4356.96, 3550.55, 3618.48, -158547.38, -170108.03, 0.00, 0.00, 0.00
247, -4292.12, -4294.04, -4342.23, -4324.08, 3480.79, 3548.85, -158509.41, -170068.92, 0.00, 0.00, 0.00
248, -4170.25, -4195.62, -4233.00, -4234.72, 3300.48, 3368.74, -158401.36, -169960.77, 0.00, 0.00, 0.00
249, -4193.10, -4212.83, -4256.08, -4254.30, 3345.36, 3413.67, -158424.44, -169985.08, 0.00, 0.00, 0.00
250, -4319.07, -4314.80, -4367.49, -4345.54, 3531.60, 3599.61, -158534.14, -170095.23, 0.00, 0.00, 0.00
251, -4311.54, -4309.66, -4360.22, -4339.14, 3510.74, 3578.76, -158525.97, -170085.75, 0.00, 0.00, 0.00
252, -4184.11, -4206.42, -4244.53, -4243.81, 3320.55, 3388.88, -158412.42, -169971.84, 0.00, 0.00, 0.00
253, -4174.86, -4197.93, -4238.54, -4239.72, 3316.84, 3385.19, -158406.56, -169967.05, 0.00, 0.00, 0.00
254, -4300.30, -4299.29, -4350.81, -4332.01, 3505.33, 3573.33, -158517.38, -170078.52, 0.00, 0.00, 0.00
255, -4324.93, -4319.97, -4371.60, -4348.42, 3532.69, 3600.60, -158536.88, -170096.91, 0.00, 0.00, 0.00
0, -4205.46, -4223.94, -4264.24, -4260.11, 3351.69, 3419.91, -158430.97, -169990.28, 0.00, 0.00, 0.00
1, -4163.37, -4189.19, -4227.97, -4231.12, 3297.73, 3366.08, -158394.94, -169955.22, 0.00, 0.00, 0.00
2, -4276.76, -4280.00, -4329.71, -4314.36, 3472.23, 3540.25, -158496.27, -170057.34, 0.00, 0.00, 0.00
3, -4334.81, -4328.01, -4380.81, -4356.27, 3549.14, 3617.09, -158545.03, -170105.28, 0.00, 0.00, 0.00
4, -4226.96, -4241.09, -4282.80, -4274.91, 3384.26, 3452.45, -158449.03, -170008.30, 0.00, 0.00, 0.00
5, -4157.25, -4184.49, -4221.60, -4225.95, 3286.33, 3354.68, -158388.19, -169948.11, 0.00, 0.00, 0.00
6, -4254.34, -4262.12, -4310.11, -4298.82, 3438.01, 3506.16, -158476.09, -170037.17, 0.00, 0.00, 0.00
7, -4338.56, -4330.76, -4384.45, -4359.53, 3556.41, 3624.36, -158547.72, -170108.19, 0.00, 0.00, 0.00
8, -4251.57, -4260.82, -4305.66, -4293.88, 3421.31, 3489.42, -158470.38, -170029.77, 0.00, 0.00, 0.00
9, -4157.63, -4185.01, -4222.09, -4226.36, 3284.61, 3353.01, -158387.34, -169947.22, 0.00, 0.00, 0.00
10, -4228.64, -4241.29, -4286.82, -4279.58, 3400.01, 3468.21, -158452.14, -170013.02, 0.00, 0.00, 0.00
11, -4337.85, -4330.38, -4383.89, -4359.60, 3556.48, 3624.29, -158546.48, -170107.14, 0.00, 0.00, 0.00
12, -4277.81, -4282.30, -4328.91, -4313.37, 3459.45, 3527.35, -158492.64, -170052.22, 0.00, 0.00, 0.00
13, -4162.39, -4188.90, -4225.24, -4228.61, 3290.38, 3358.57, -158390.11, -169949.88, 0.00, 0.00, 0.00
14, -4206.44, -4223.54, -4267.24, -4263.64, 3365.99, 3434.26, -158431.89, -169992.63, 0.00, 0.00, 0.00
15, -4330.90, -4324.95, -4377.90, -4354.92, 3546.89, 3614.86, -158540.27, -170101.03, 0.00, 0.00, 0.00
16, -4299.65, -4300.12, -4348.96, -4330.00, 3492.86, 3560.88, -158511.34, -170071.11, 0.00, 0.00, 0.00
17, -4176.85, -4201.12, -4239.16, -4240.30, 3309.69, 3378.00, -158402.72, -169962.34, 0.00, 0.00, 0.00
18, -4187.40, -4208.32, -4250.70, -4250.25, 3336.51, 3404.82, -158414.36, -169975.11, 0.00, 0.00, 0.00
19, -4314.36, -4311.03, -4363.15, -4342.45, 3524.96, 3592.95, -158525.27, -170086.33, 0.00, 0.00, 0.00
20, -4318.04, -4314.83, -4365.94, -4344.22, 3521.00, 3589.02, -158527.02, -170086.95, 0.00, 0.00, 0.00
21, -4193.32, -4214.40, -4253.85, -4252.02, 3333.65, 3401.91, -158416.63, -169976.03, 0.00, 0.00, 0.00
22, -4172.89, -4197.08, -4237.49, -4239.43, 3312.77, 3381.04, -158400.53, -169960.94, 0.00, 0.00, 0.00
23, -4297.06, -4297.37, -4348.49, -4330.81, 3499.08, 3567.09, -158510.20, -170071.27, 0.00, 0.00, 0.00
24, -4332.57, -4326.67, -4379.38, -4355.93, 3543.11, 3611.04, -158539.27, -170099.41, 0.00, 0.00, 0.00
25, -4217.26, -4234.11, -4275.58, -4270.37, 3367.38, 3435.57, -158437.30, -169996.83, 0.00, 0.00, 0.00
26, -4165.67, -4191.78, -4231.19, -4234.90, 3298.65, 3366.82, -158393.11, -169953.47, 0.00, 0.00, 0.00
27, -4270.97, -4275.46, -4324.97, -4311.18, 3462.58, 3530.59, -158486.56, -170047.63, 0.00, 0.00, 0.00
28, -4338.27, -4330.69, -4383.87, -4359.28, 3554.06, 3622.03, -158543.25, -170103.70, 0.00, 0.00, 0.00
29, -4237.51, -4249.63, -4292.81, -4283.58, 3399.10, 3467.31, -158454.02, -170013.59, 0.00, 0.00, 0.00
30, -4162.36, -4189.54, -4228.15, -4232.46, 3291.00, 3359.38, -158389.16, -169949.30, 0.00, 0.00, 0.00
31, -4251.15, -4260.51, -4308.19, -4298.26, 3430.90, 3499.10, -158469.19, -170030.31, 0.00, 0.00, 0.00
32, -4343.48, -4335.66, -4389.41, -4364.54, 3561.97, 3629.86, -158547.67, -170108.27, 0.00, 0.00, 0.00
33, -4263.82, -4271.33, -4316.99, -4303.81, 3437.90, 3506.05, -158476.91, -170036.44, 0.00, 0.00, 0.00
34, -4161.94, -4189.16, -4226.76, -4230.78, 3289.48, 3357.92, -158387.30, -169947.13, 0.00, 0.00, 0.00
35, -4225.80, -4239.92, -4285.66, -4279.55, 3393.58, 3461.82, -158446.30, -170007.27, 0.00, 0.00, 0.00
36, -4340.42, -4333.29, -4386.91, -4362.81, 3558.08, 3626.03, -158544.73, -170105.58, 0.00, 0.00, 0.00
37, -4289.72, -4292.67, -4340.48, -4323.70, 3475.03, 3543.15, -158499.03, -170058.81, 0.00, 0.00, 0.00
38, -4170.08, -4195.98, -4233.58, -4236.13, 3299.25, 3367.65, -158393.16, -169952.98, 0.00, 0.00, 0.00
39, -4201.73, -4220.14, -4263.93, -4261.45, 3357.50, 3425.72, -158423.77, -169984.66, 0.00, 0.00, 0.00
40, -4327.07, -4321.91, -4374.68, -4352.31, 3541.34, 3609.25, -158532.58, -170093.63, 0.00, 0.00, 0.00
41, -4303.94, -4303.02, -4352.58, -4332.48, 3500.51, 3568.48, -158510.31, -170070.22, 0.00, 0.00, 0.00
42, -4179.53, -4202.87, -4241.47, -4241.67, 3314.67, 3382.96, -158400.33, -169959.94, 0.00, 0.00, 0.00
43, -4180.87, -4203.04, -4244.13, -4244.55, 3326.16, 3394.36, -158403.34, -169963.95, 0.00, 0.00, 0.00
44, -4308.46, -4306.31, -4357.67, -4337.74, 3516.15, 3584.04, -158515.50, -170076.52, 0.00, 0.00, 0.00
45, -4322.11, -4317.78, -4369.34, -4346.68, 3528.00, 3595.93, -158525.77, -170085.91, 0.00, 0.00, 0.00
46, -4199.24, -4218.80, -4258.97, -4255.84, 3342.88, 3411.08, -158417.11, -169976.73, 0.00, 0.00, 0.00
47, -4167.73, -4192.58, -4231.97, -4234.56, 3304.33, 3372.68, -158390.42, -169950.98, 0.00, 0.00, 0.00
48, -4284.99, -4286.71, -4336.39, -4320.06, 3483.47, 3551.56, -158494.20, -170055.39, 0.00, 0.00, 0.00
49, -4333.44, -4326.72, -4379.42, -4355.37, 3546.35, 3614.30, -158535.13, -170095.36, 0.00, 0.00, 0.00
50, -4221.64, -4236.68, -4278.32, -4271.66, 3375.76, 3443.93, -158436.02, -169995.69, 0.00, 0.00, 0.00
51, -4159.30, -4185.86, -4223.90, -4228.01, 3290.20, 3358.44, -158381.75, -169942.14, 0.00, 0.00, 0.00
52, -4261.34, -4267.42, -4316.32, -4303.85, 3449.25, 3517.27, -158473.77, -170034.91, 0.00, 0.00, 0.00
53, -4339.28, -4331.28, -4384.88, -4360.00, 3556.52, 3624.31, -158539.67, -170100.17, 0.00, 0.00, 0.00
54, -4244.75, -4255.03, -4299.29, -4288.72, 3410.83, 3478.80, -158455.53, -170014.94, 0.00, 0.00, 0.00
55, -4158.63, -4185.83, -4223.21, -4227.63, 3286.29, 3354.50, -158380.00, -169939.88, 0.00, 0.00, 0.00
56, -4239.99, -4250.88, -4297.23, -4288.70, 3415.37, 3483.39, -158454.22, -170015.34, 0.00, 0.00, 0.00
57, -4342.09, -4333.98, -4387.89, -4363.31, 3560.92, 3628.72, -158541.97, -170102.95, 0.00, 0.00, 0.00
58, -4273.25, -4278.82, -4325.35, -4311.00, 3451.35, 3519.42, -158480.25, -170039.97, 0.00, 0.00, 0.00
59, -4164.80, -4191.31, -4229.17, -4232.86, 3292.61, 3360.88, -158384.67, -169944.67, 0.00, 0.00, 0.00
60, -4216.68, -4231.94, -4277.32, -4272.58, 3380.48, 3448.61, -158433.34, -169994.59, 0.00, 0.00, 0.00
61, -4335.37, -4328.44, -4381.79, -4358.12, 3552.47, 3620.31, -158535.63, -170096.84, 0.00, 0.00, 0.00
62, -4292.74, -4293.95, -4342.12, -4324.03, 3482.65, 3550.60, -158496.44, -170056.36, 0.00, 0.00, 0.00
63, -4172.09, -4196.90, -4234.69, -4236.62, 3303.10, 3371.34, -158389.69, -169949.36, 0.00, 0.00, 0.00
64, -4193.34, -4212.86, -4255.57, -4254.23, 3345.41, 3413.60, -158410.94, -169971.83, 0.00, 0.00, 0.00
65, -4317.89, -4313.33, -4365.43, -4343.97, 3530.44, 3598.32, -158519.39, -170080.61, 0.00, 0.00, 0.00
66, -4308.57, -4306.11, -4356.13, -4335.32, 3508.73, 3576.73, -158509.31, -170069.33, 0.00, 0.00, 0.00
67, -4185.79, -4207.63, -4246.23, -4245.69, 3323.37, 3391.61, -158400.69, -169960.11, 0.00, 0.00, 0.00
68, -4178.19, -4201.14, -4242.34, -4243.88, 3320.87, 3389.02, -158397.00, -169957.67, 0.00, 0.00, 0.00
69, -4299.89, -4298.84, -4350.16, -4331.57, 3504.73, 3572.68, -158503.45, -170064.88, 0.00, 0.00, 0.00
70, -4326.38, -4320.90, -4372.87, -4349.67, 3534.62, 3602.54, -158524.75, -170084.97, 0.00, 0.00, 0.00
71, -4206.75, -4224.70, -4265.09, -4260.87, 3353.61, 3421.81, -158418.81, -169978.33, 0.00, 0.00, 0.00
72, -4165.16, -4190.68, -4229.69, -4233.04, 3299.63, 3367.87, -158383.56, -169944.13, 0.00, 0.00, 0.00
73, -4277.81, -4280.90, -4330.49, -4315.54, 3472.86, 3540.92, -158483.83, -170045.45, 0.00, 0.00, 0.00
74, -4335.77, -4328.39, -4381.32, -4356.82, 3550.64, 3618.52, -158532.45, -170093.19, 0.00, 0.00, 0.00
75, -4228.97, -4242.41, -4284.87, -4276.81, 3387.25, 3455.40, -158437.58, -169997.17, 0.00, 0.00, 0.00
76, -4161.16, -4188.07, -4226.42, -4230.54, 3290.74, 3359.04, -158379.14, -169939.50, 0.00, 0.00, 0.00
77, -4257.31, -4265.20, -4313.15, -4301.91, 3440.98, 3509.09, -158466.02, -170027.34, 0.00, 0.00, 0.00
78, -4345.67, -4337.58, -4391.36, -4366.50, 3563.83, 3631.71, -158541.39, -170102.22, 0.00, 0.00, 0.00
79, -4260.29, -4268.96, -4313.89, -4301.75, 3430.66, 3498.72, -158465.55, -170025.42, 0.00, 0.00, 0.00
80, -4163.39, -4190.39, -4228.55, -4232.59, 3291.16, 3359.42, -158380.52, -169940.78, 0.00, 0.00, 0.00
81, -4231.45, -4243.84, -4290.37, -4283.02, 3403.25, 3471.27, -158442.72, -170003.83, 0.00, 0.00, 0.00
82, -4340.62, -4332.98, -4386.66, -4362.10, 3559.43, 3627.08, -158536.36, -170097.23, 0.00, 0.00, 0.00
83, -4279.76, -4283.80, -4330.58, -4314.56, 3462.31, 3530.08, -158481.50, -170041.52, 0.00, 0.00, 0.00
84, -4166.88, -4192.94, -4230.87, -4233.76, 3295.74, 3363.89, -158382.13, -169942.30, 0.00, 0.00, 0.00
85, -4208.92, -4225.80, -4270.61, -4266.95, 3368.79, 3436.89, -158422.05, -169983.38, 0.00, 0.00, 0.00
86, -4331.90, -4325.64, -4379.02, -4355.82, 3547.80, 3615.71, -158528.20, -170089.55, 0.00, 0.00, 0.00
87, -4303.92, -4303.56, -4353.07, -4333.69, 3497.35, 3565.37, -158502.23, -170062.39, 0.00, 0.00, 0.00
88, -4181.34, -4204.97, -4243.99, -4244.73, 3314.63, 3382.87, -158394.16, -169953.98, 0.00, 0.00, 0.00
89, -4191.22, -4211.72, -4255.39, -4254.88, 3340.65, 3408.71, -158405.84, -169966.84, 0.00, 0.00, 0.00
90, -4318.45, -4314.83, -4367.46, -4346.86, 3528.78, 3596.60, -158516.47, -170077.86, 0.00, 0.00, 0.00
91, -4323.19, -4319.34, -4371.06, -4349.34, 3526.64, 3594.54, -158518.88, -170079.20, 0.00, 0.00, 0.00
92, -4197.66, -4217.86, -4258.61, -4256.53, 3338.64, 3406.88, -158407.91, -169967.73, 0.00, 0.00, 0.00
93, -4176.65, -4200.32, -4241.85, -4243.72, 3316.33, 3384.57, -158391.61, -169952.41, 0.00, 0.00, 0.00
94, -4298.37, -4298.60, -4349.60, -4331.97, 3499.88, 3567.92, -158498.69, -170060.09, 0.00, 0.00, 0.00
95, -4334.27, -4327.99, -4380.76, -4357.00, 3545.12, 3613.03, -158527.81, -170088.20, 0.00, 0.00, 0.00
96, -4219.32, -4235.57, -4276.98, -4271.24, 3369.97, 3438.10, -158425.98, -169985.70, 0.00, 0.00, 0.00
97, -4166.45, -4192.32, -4231.68, -4235.19, 3298.87, 3367.13, -158380.77, -169941.30, 0.00, 0.00, 0.00
98, -4275.96, -4280.52, -4329.29, -4315.59, 3466.40, 3534.39, -158478.02, -170039.53, 0.00, 0.00, 0.00
99, -4342.54, -4334.58, -4388.36, -4363.71, 3558.60, 3626.44, -158534.38, -170095.23, 0.00, 0.00, 0.00
100, -4240.73, -4252.24, -4296.01, -4286.44, 3402.78, 3470.89, -158443.83, -170003.47, 0.00, 0.00, 0.00
101, -4160.60, -4187.35, -4225.69, -4229.84, 3288.61, 3356.90, -158373.81, -169934.05, 0.00, 0.00, 0.00
102, -4249.38, -4258.45, -4306.42, -4296.65, 3428.42, 3496.53, -158454.69, -170015.94, 0.00, 0.00, 0.00
103, -4347.39, -4338.92, -4393.39, -4368.56, 3565.80, 3633.68, -158538.81, -170099.70, 0.00, 0.00, 0.00
104, -4267.28, -4273.94, -4320.08, -4306.76, 3441.70, 3509.67, -158466.98, -170026.83, 0.00, 0.00, 0.00
105, -4162.50, -4189.14, -4226.87, -4230.83, 3289.86, 3358.04, -158374.48, -169934.66, 0.00, 0.00, 0.00
106, -4222.04, -4235.86, -4281.68, -4275.82, 3389.06, 3457.19, -158429.52, -169990.75, 0.00, 0.00, 0.00
107, -4337.45, -4329.82, -4383.62, -4359.62, 3555.25, 3623.13, -158528.98, -170090.11, 0.00, 0.00, 0.00
108, -4286.91, -4289.12, -4337.38, -4320.52, 3473.08, 3541.12, -158483.16, -170043.06, 0.00, 0.00, 0.00
109, -4169.67, -4194.91, -4233.06, -4235.68, 3299.21, 3367.54, -158379.81, -169939.70, 0.00, 0.00, 0.00
110, -4201.30, -4219.38, -4263.33, -4261.07, 3356.49, 3424.82, -158410.52, -169971.69, 0.00, 0.00, 0.00
111, -4326.11, -4320.50, -4373.27, -4351.15, 3539.98, 3607.91, -158518.64, -170079.98, 0.00, 0.00, 0.00
112, -4309.08, -4307.47, -4357.49, -4337.56, 3506.05, 3574.00, -158502.39, -170062.50, 0.00, 0.00, 0.00
113, -4184.29, -4206.91, -4245.85, -4245.98, 3319.75, 3388.05, -158392.03, -169951.84, 0.00, 0.00, 0.00
114, -4184.85, -4206.58, -4249.00, -4249.60, 3330.39, 3398.63, -158395.41, -169956.38, 0.00, 0.00, 0.00
115, -4311.34, -4308.81, -4360.51, -4340.75, 3518.59, 3586.67, -158505.88, -170067.25, 0.00, 0.00, 0.00
116, -4326.43, -4321.55, -4373.59, -4350.92, 3532.31, 3600.28, -158517.05, -170077.34, 0.00, 0.00, 0.00
117, -4201.95, -4220.79, -4261.09, -4257.98, 3345.59, 3413.83, -158406.38, -169966.06, 0.00, 0.00, 0.00
118, -4169.40, -4193.90, -4233.69, -4236.59, 3305.49, 3373.84, -158379.31, -169940.06, 0.00, 0.00, 0.00
119, -4287.33, -4288.67, -4338.97, -4323.01, 3484.82, 3552.94, -158483.77, -170045.41, 0.00, 0.00, 0.00
120, -4337.27, -4330.07, -4383.06, -4359.01, 3550.08, 3618.05, -158525.78, -170086.52, 0.00, 0.00, 0.00
121, -4226.09, -4240.66, -4282.64, -4275.80, 3380.61, 3448.92, -158427.38, -169987.27, 0.00, 0.00, 0.00
122, -4163.15, -4189.54, -4228.26, -4232.44, 3293.93, 3362.24, -158372.98, -169933.53, 0.00, 0.00, 0.00
123, -4263.08, -4269.14, -4317.55, -4305.37, 3449.84, 3517.96, -158462.16, -170023.59, 0.00, 0.00, 0.00
124, -4342.81, -4334.54, -4388.18, -4363.44, 3559.94, 3627.84, -158529.94, -170090.75, 0.00, 0.00, 0.00
125, -4251.66, -4261.58, -4305.93, -4295.22, 3418.05, 3486.18, -158449.36, -170009.31, 0.00, 0.00, 0.00
126, -4161.09, -4188.09, -4225.78, -4230.27, 3288.52, 3356.78, -158369.64, -169930.16, 0.00, 0.00, 0.00
127, -4238.76, -4249.71, -4296.36, -4288.14, 3413.40, 3481.51, -158440.22, -170001.59, 0.00, 0.00, 0.00
128, -4343.84, -4335.70, -4389.75, -4365.14, 3562.58, 3630.39, -158530.69, -170091.73, 0.00, 0.00, 0.00
129, -4275.17, -4280.45, -4326.72, -4312.19, 3453.84, 3521.85, -158469.22, -170029.36, 0.00, 0.00, 0.00
130, -4164.15, -4190.64, -4227.79, -4231.48, 3291.76, 3360.07, -158370.98, -169931.36, 0.00, 0.00, 0.00
131, -4214.09, -4229.67, -4274.12, -4269.54, 3376.52, 3444.74, -158417.25, -169978.63, 0.00, 0.00, 0.00
132, -4336.01, -4329.09, -4382.44, -4358.81, 3552.74, 3620.69, -158523.17, -170084.41, 0.00, 0.00, 0.00
133, -4295.11, -4296.05, -4344.64, -4326.34, 3485.40, 3553.37, -158485.80, -170046.03, 0.00, 0.00, 0.00
134, -4172.76, -4197.25, -4234.85, -4236.71, 3303.90, 3372.07, -158377.33, -169937.56, 0.00, 0.00, 0.00
135, -4192.40, -4212.01, -4254.88, -4253.74, 3344.00, 3412.08, -158397.39, -169958.61, 0.00, 0.00, 0.00
136, -4319.54, -4315.14, -4367.42, -4346.05, 3531.69, 3599.52, -158508.16, -170069.56, 0.00, 0.00, 0.00
137, -4313.35, -4310.56, -4361.36, -4340.31, 3514.05, 3582.00, -158501.20, -170061.52, 0.00, 0.00, 0.00
138, -4186.64, -4208.21, -4247.10, -4246.21, 3324.67, 3392.95, -158388.80, -169948.80, 0.00, 0.00, 0.00
139, -4173.36, -4196.54, -4236.73, -4238.18, 3314.72, 3382.96, -158378.42, -169939.50, 0.00, 0.00, 0.00
140, -4298.96, -4297.97, -4349.34, -4330.85, 3503.12, 3571.09, -158489.44, -170051.03, 0.00, 0.00, 0.00
141, -4329.51, -4323.97, -4376.29, -4353.05, 3538.35, 3606.10, -158514.91, -170075.45, 0.00, 0.00, 0.00
142, -4209.08, -4226.71, -4267.48, -4263.13, 3356.43, 3424.60, -158408.02, -169967.94, 0.00, 0.00, 0.00
143, -4168.04, -4193.41, -4233.20, -4236.46, 3302.43, 3370.75, -158373.80, -169934.70, 0.00, 0.00, 0.00
144, -4281.39, -4284.63, -4334.63, -4319.83, 3475.90, 3543.89, -158474.63, -170036.22, 0.00, 0.00, 0.00
145, -4340.42, -4333.02, -4386.17, -4361.72, 3555.34, 3623.20, -158523.94, -170084.72, 0.00, 0.00, 0.00
146, -4234.40, -4247.61, -4290.15, -4281.99, 3393.31, 3461.46, -158429.97, -169990.06, 0.00, 0.00, 0.00
147, -4162.07, -4188.94, -4227.50, -4231.90, 3291.65, 3359.91, -158367.17, -169927.95, 0.00, 0.00, 0.00
148, -4254.21, -4262.01, -4310.40, -4299.60, 3437.34, 3505.40, -158450.28, -170011.70, 0.00, 0.00, 0.00
149, -4342.03, -4333.78, -4387.45, -4362.50, 3560.03, 3627.84, -158524.52, -170085.50, 0.00, 0.00, 0.00
150, -4256.22, -4264.44, -4309.33, -4297.01, 3426.92, 3495.01, -158448.00, -170007.98, 0.00, 0.00, 0.00
151, -4158.59, -4185.72, -4222.65, -4226.96, 3285.51, 3353.86, -158361.70, -169922.19, 0.00, 0.00, 0.00
152, -4227.52, -4240.24, -4285.97, -4279.15, 3397.91, 3466.00, -158424.98, -169986.55, 0.00, 0.00, 0.00
153, -4339.52, -4331.81, -4385.46, -4361.29, 3557.97, 3625.77, -158521.89, -170083.20, 0.00, 0.00, 0.00
154, -4281.41, -4285.12, -4332.19, -4316.59, 3464.16, 3532.13, -158469.55, -170029.61, 0.00, 0.00, 0.00
155, -4163.73, -4189.70, -4226.20, -4229.55, 3292.10, 3360.45, -158364.94, -169925.08, 0.00, 0.00, 0.00
156, -4204.94, -4221.93, -4265.90, -4262.77, 3363.56, 3431.80, -158404.44, -169965.83, 0.00, 0.00, 0.00
157, -4329.85, -4323.48, -4376.47, -4353.74, 3545.39, 3613.23, -158512.84, -170074.58, 0.00, 0.00, 0.00
158, -4303.29, -4302.62, -4351.93, -4332.93, 3497.40, 3565.30, -158488.03, -170048.36, 0.00, 0.00, 0.00
159, -4179.35, -4202.75, -4241.22, -4242.36, 3312.73, 3380.90, -158378.28, -169938.25, 0.00, 0.00, 0.00
160, -4189.36, -4210.04, -4252.55, -4252.60, 3337.74, 3405.87, -158389.91, -169951.19, 0.00, 0.00, 0.00
161, -4316.77, -4313.24, -4365.09, -4344.87, 3526.64, 3594.41, -158501.16, -170062.95, 0.00, 0.00, 0.00
162, -4323.01, -4318.94, -4370.19, -4348.55, 3526.95, 3594.79, -158504.75, -170065.34, 0.00, 0.00, 0.00
163, -4198.02, -4218.11, -4257.52, -4255.59, 3339.08, 3407.26, -158393.64, -169953.56, 0.00, 0.00, 0.00
164, -4170.30, -4194.13, -4233.84, -4236.24, 3308.57, 3376.88, -158370.23, -169931.20, 0.00, 0.00, 0.00
165, -4290.89, -4291.07, -4341.69, -4324.59, 3491.66, 3559.65, -158476.91, -170038.63, 0.00, 0.00, 0.00
166, -4332.91, -4326.11, -4378.91, -4355.30, 3544.23, 3612.09, -158512.22, -170072.98, 0.00, 0.00, 0.00
167, -4218.80, -4234.56, -4276.27, -4270.73, 3370.13, 3438.32, -158411.36, -169971.38, 0.00, 0.00, 0.00
168, -4162.43, -4188.36, -4226.80, -4230.69, 3294.29, 3362.57, -158362.08, -169922.92, 0.00, 0.00, 0.00
169, -4267.13, -4271.80, -4320.64, -4307.27, 3457.50, 3525.50, -158455.58, -170017.47, 0.00, 0.00, 0.00
170, -4338.12, -4330.00, -4383.29, -4358.57, 3554.73, 3622.55, -158515.80, -170076.94, 0.00, 0.00, 0.00
171, -4239.03, -4250.30, -4293.32, -4283.69, 3402.00, 3470.06, -158427.53, -169987.56, 0.00, 0.00, 0.00
172, -4159.53, -4186.48, -4224.03, -4228.48, 3287.67, 3355.96, -158358.44, -169919.00, 0.00, 0.00, 0.00
173, -4244.77, -4254.19, -4301.59, -4292.07, 3423.55, 3491.57, -158436.02, -169997.73, 0.00, 0.00, 0.00
174, -4342.52, -4334.14, -4388.00, -4363.24, 3561.06, 3628.83, -158519.42, -170080.72, 0.00, 0.00, 0.00
175, -4268.42, -4274.86, -4320.86, -4307.45, 3443.44, 3511.28, -158453.25, -170013.36, 0.00, 0.00, 0.00
176, -4164.00, -4190.46, -4228.32, -4232.24, 3291.41, 3359.56, -158361.19, -169921.67, 0.00, 0.00, 0.00
177, -4221.33, -4235.30, -4281.21, -4275.46, 3388.32, 3456.43, -158414.63, -169976.30, 0.00, 0.00, 0.00
178, -4335.79, -4328.35, -4381.86, -4357.74, 3554.02, 3621.90, -158512.91, -170074.39, 0.00, 0.00, 0.00
179, -4288.99, -4291.04, -4339.08, -4321.87, 3476.17, 3544.23, -158470.33, -170030.47, 0.00, 0.00, 0.00
180, -4171.55, -4196.63, -4234.74, -4237.09, 3301.60, 3369.93, -158366.64, -169926.83, 0.00, 0.00, 0.00
181, -4200.27, -4218.60, -4262.48, -4260.15, 3355.40, 3423.57, -158394.58, -169956.05, 0.00, 0.00, 0.00
182, -4325.98, -4320.48, -4373.36, -4351.04, 3539.85, 3607.75, -158503.56, -170065.28, 0.00, 0.00, 0.00
183, -4309.51, -4307.67, -4357.61, -4337.13, 3507.17, 3575.12, -158487.44, -170047.86, 0.00, 0.00, 0.00
184, -4185.86, -4208.30, -4247.41, -4247.21, 3321.87, 3390.11, -158378.28, -169938.30, 0.00, 0.00, 0.00
185, -4180.69, -4202.71, -4244.46, -4245.20, 3325.40, 3393.64, -158375.66, -169936.75, 0.00, 0.00, 0.00
186, -4306.04, -4303.92, -4355.51, -4336.19, 3513.14, 3581.08, -158485.58, -170047.27, 0.00, 0.00, 0.00
187, -4326.98, -4322.20, -4373.95, -4351.48, 3533.56, 3601.45, -158502.41, -170062.97, 0.00, 0.00, 0.00
188, -4203.47, -4222.45, -4262.52, -4259.39, 3347.82, 3416.08, -158392.75, -169952.75, 0.00, 0.00, 0.00
189, -4168.85, -4193.77, -4233.13, -4236.08, 3305.00, 3373.33, -158363.58, -169924.59, 0.00, 0.00, 0.00
190, -4287.60, -4289.57, -4339.66, -4323.86, 3485.17, 3553.23, -158469.14, -170030.86, 0.00, 0.00, 0.00
191, -4339.12, -4332.10, -4385.43, -4361.38, 3552.63, 3620.56, -158512.44, -170073.23, 0.00, 0.00, 0.00
192, -4226.87, -4241.33, -4284.02, -4277.01, 3382.36, 3450.53, -158412.69, -169972.66, 0.00, 0.00, 0.00
193, -4160.75, -4187.38, -4225.51, -4229.46, 3291.20, 3359.47, -158354.77, -169915.59, 0.00, 0.00, 0.00
194, -4261.56, -4268.18, -4316.48, -4304.41, 3447.89, 3516.00, -158445.36, -170007.08, 0.00, 0.00, 0.00
195, -4342.12, -4333.82, -4387.74, -4362.75, 3559.85, 3627.71, -158514.13, -170075.16, 0.00, 0.00, 0.00
196, -4247.86, -4257.38, -4301.73, -4290.66, 3415.23, 3483.30, -158430.08, -169990.08, 0.00, 0.00, 0.00
197, -4157.98, -4185.07, -4222.11, -4226.63, 3285.48, 3353.70, -158351.06, -169911.50, 0.00, 0.00, 0.00
198, -4235.01, -4246.23, -4292.92, -4285.03, 3409.56, 3477.62, -158421.50, -169982.95, 0.00, 0.00, 0.00
199, -4339.43, -4331.37, -4385.21, -4360.71, 3558.42, 3626.19, -158511.06, -170072.23, 0.00, 0.00, 0.00
200, -4274.86, -4279.93, -4325.98, -4311.05, 3454.37, 3522.43, -158453.28, -170013.52, 0.00, 0.00, 0.00
201, -4166.28, -4192.65, -4230.34, -4233.91, 3294.47, 3362.84, -158357.98, -169918.56, 0.00, 0.00, 0.00
202, -4214.96, -4230.58, -4275.58, -4271.40, 3377.73, 3445.92, -158403.66, -169965.25, 0.00, 0.00, 0.00
203, -4334.18, -4327.39, -4380.70, -4357.47, 3551.25, 3619.04, -158506.30, -170067.73, 0.00, 0.00, 0.00
204, -4295.40, -4296.18, -4344.89, -4326.78, 3486.56, 3554.49, -158470.94, -170031.19, 0.00, 0.00, 0.00
205, -4173.85, -4198.31, -4236.44, -4238.47, 3305.51, 3373.84, -158363.47, -169923.81, 0.00, 0.00, 0.00
206, -4190.95, -4211.02, -4252.98, -4252.33, 3341.59, 3409.89, -158380.34, -169941.77, 0.00, 0.00, 0.00
207, -4321.58, -4317.37, -4369.41, -4348.33, 3533.32, 3601.36, -158494.97, -170056.58, 0.00, 0.00, 0.00
208, -4315.54, -4312.70, -4363.24, -4342.30, 3516.89, 3584.88, -158488.22, -170048.69, 0.00, 0.00, 0.00
209, -4188.05, -4209.62, -4248.71, -4247.97, 3326.92, 3395.30, -158375.09, -169935.28, 0.00, 0.00, 0.00
210, -4177.21, -4200.47, -4241.20, -4243.01, 3318.79, 3387.18, -158367.72, -169928.95, 0.00, 0.00, 0.00
211, -4300.50, -4299.85, -4350.41, -4332.30, 3504.51, 3572.46, -158476.02, -170037.69, 0.00, 0.00, 0.00
212, -4326.43, -4320.73, -4372.78, -4349.65, 3535.82, 3603.82, -158496.61, -170057.41, 0.00, 0.00, 0.00
213, -4206.20, -4223.67, -4264.22, -4259.82, 3354.19, 3422.52, -158389.84, -169950.13, 0.00, 0.00, 0.00
214, -4162.16, -4187.89, -4226.02, -4229.55, 3295.79, 3364.18, -158352.30, -169913.28, 0.00, 0.00, 0.00
215, -4277.56, -4281.12, -4330.38, -4315.81, 3471.43, 3539.49, -158455.58, -170017.33, 0.00, 0.00, 0.00
216, -4339.41, -4332.10, -4385.26, -4360.89, 3554.87, 3622.82, -158508.03, -170068.97, 0.00, 0.00, 0.00
217, -4234.56, -4247.66, -4290.44, -4282.24, 3394.34, 3462.53, -158415.19, -169975.31, 0.00, 0.00, 0.00
218, -4159.39, -4186.53, -4224.23, -4228.86, 3288.84, 3357.14, -158349.45, -169910.22, 0.00, 0.00, 0.00
219, -4251.46, -4259.71, -4307.49, -4296.94, 3434.32, 3502.47, -158432.67, -169994.33, 0.00, 0.00, 0.00
220, -4340.44, -4332.39, -4385.88, -4360.98, 3558.98, 3626.88, -158508.38, -170069.52, 0.00, 0.00, 0.00
221, -4257.14, -4265.43, -4310.02, -4297.59, 3428.62, 3496.77, -158434.02, -169994.08, 0.00, 0.00, 0.00
222, -4161.87, -4189.10, -4226.69, -4230.87, 3289.44, 3357.81, -158350.80, -169911.27, 0.00, 0.00, 0.00
223, -4230.29, -4243.25, -4289.61, -4282.97, 3400.84, 3469.10, -158414.23, -169975.83, 0.00, 0.00, 0.00
224, -4341.02, -4333.47, -4387.00, -4362.95, 3559.69, 3627.64, -158509.16, -170070.63, 0.00, 0.00, 0.00
225, -4282.68, -4286.44, -4333.31, -4317.49, 3466.49, 3534.55, -158456.36, -170016.75, 0.00, 0.00, 0.00
226, -4168.85, -4194.91, -4232.73, -4235.99, 3298.13, 3366.44, -158356.20, -169916.61, 0.00, 0.00, 0.00
227, -4205.53, -4222.94, -4267.26, -4264.33, 3364.36, 3432.65, -158391.05, -169952.56, 0.00, 0.00, 0.00
228, -4329.69, -4323.97, -4376.72, -4354.16, 3545.34, 3613.34, -158498.47, -170060.09, 0.00, 0.00, 0.00
229, -4303.96, -4303.90, -4352.87, -4333.71, 3498.63, 3566.69, -158474.44, -170034.92, 0.00, 0.00, 0.00
230, -4178.79, -4202.84, -4240.73, -4241.62, 3312.60, 3380.90, -158363.47, -169923.88, 0.00, 0.00, 0.00
231, -4184.38, -4206.04, -4247.35, -4247.41, 3331.55, 3399.81, -158370.08, -169931.66, 0.00, 0.00, 0.00
232, -4312.72, -4309.95, -4361.70, -4341.51, 3522.28, 3590.25, -158482.95, -170045.00, 0.00, 0.00, 0.00
233, -4321.33, -4317.66, -4368.80, -4347.06, 3525.79, 3593.69, -158489.11, -170049.77, 0.00, 0.00, 0.00
234, -4196.45, -4216.92, -4256.17, -4254.27, 3338.30, 3406.56, -158378.28, -169938.45, 0.00, 0.00, 0.00
235, -4172.60, -4197.03, -4237.33, -4239.92, 3311.75, 3380.03, -158359.73, -169920.89, 0.00, 0.00, 0.00
236, -4293.26, -4294.08, -4344.69, -4327.77, 3494.34, 3562.33, -158466.08, -170027.97, 0.00, 0.00, 0.00
237, -4332.33, -4326.18, -4378.24, -4354.48, 3544.18, 3612.11, -158497.80, -170058.64, 0.00, 0.00, 0.00
238, -4217.15, -4233.40, -4274.26, -4268.56, 3369.10, 3437.43, -158395.56, -169955.58, 0.00, 0.00, 0.00
239, -4162.95, -4189.43, -4227.41, -4231.50, 3294.80, 3363.16, -158348.94, -169909.94, 0.00, 0.00, 0.00
240, -4270.12, -4275.60, -4323.70, -4310.69, 3460.18, 3528.22, -158445.13, -170007.03, 0.00, 0.00, 0.00
241, -4341.47, -4333.89, -4387.11, -4362.64, 3558.46, 3626.32, -158505.77, -170066.89, 0.00, 0.00, 0.00
242, -4242.47, -4253.96, -4297.23, -4287.87, 3406.43, 3474.53, -158417.78, -169977.88, 0.00, 0.00, 0.00
243, -4158.52, -4185.86, -4222.78, -4227.59, 3286.58, 3354.84, -158343.69, -169904.30, 0.00, 0.00, 0.00
244, -4243.28, -4253.34, -4299.20, -4290.28, 3420.71, 3488.79, -158420.08, -169981.86, 0.00, 0.00, 0.00
245, -4340.93, -4332.68, -4386.13, -4361.56, 3559.76, 3627.64, -158504.23, -170065.56, 0.00, 0.00, 0.00
246, -4266.70, -4273.23, -4318.38, -4304.83, 3442.53, 3510.61, -158438.13, -169998.31, 0.00, 0.00, 0.00
247, -4162.81, -4189.70, -4226.94, -4231.16, 3290.58, 3358.89, -158346.77, -169907.36, 0.00, 0.00, 0.00
248, -4219.09, -4233.55, -4279.17, -4274.06, 3385.80, 3453.88, -158399.08, -169960.72, 0.00, 0.00, 0.00
249, -4335.03, -4327.79, -4381.19, -4357.43, 3553.32, 3621.18, -158498.61, -170060.09, 0.00, 0.00, 0.00
250, -4291.85, -4293.84, -4341.51, -4324.41, 3479.70, 3547.74, -158459.53, -170020.02, 0.00, 0.00, 0.00
251, -4172.06, -4197.46, -4234.90, -4237.42, 3302.47, 3370.84, -158353.81, -169914.17, 0.00, 0.00, 0.00
252, -4200.43, -4219.38, -4262.79, -4260.98, 3355.06, 3423.30, -158381.84, -169943.39, 0.00, 0.00, 0.00
253, -4325.82, -4320.84, -4373.45, -4351.59, 3539.51, 3607.48, -158490.56, -170052.36, 0.00, 0.00, 0.00
254, -4309.10, -4307.27, -4357.41, -4337.31, 3507.23, 3575.30, -158473.95, -170034.45, 0.00, 0.00, 0.00
255, -4184.16, -4206.73, -4245.78, -4245.83, 3320.64, 3388.84, -158363.52, -169923.66, 0.00, 0.00, 0.00
0, -4179.37, -4201.97, -4242.81, -4243.93, 3323.66, 3391.81, -158361.05, -169922.34, 0.00, 0.00, 0.00
1, -4303.72, -4302.06, -4352.69, -4333.67, 3510.41, 3578.34, -158469.97, -170031.77, 0.00, 0.00, 0.00
2, -4324.26, -4319.50, -4370.93, -4348.44, 3531.40, 3599.37, -158486.52, -170047.23, 0.00, 0.00, 0.00
3, -4202.28, -4221.19, -4260.96, -4257.92, 3347.22, 3415.46, -158378.17, -169938.23, 0.00, 0.00, 0.00
4, -4164.67, -4189.86, -4228.53, -4231.83, 3300.30, 3368.63, -158346.13, -169907.14, 0.00, 0.00, 0.00
5, -4281.41, -4283.64, -4333.82, -4318.38, 3478.71, 3546.80, -158450.19, -170012.08, 0.00, 0.00, 0.00
6, -4336.31, -4329.42, -4382.35, -4358.41, 3550.08, 3618.01, -158496.66, -170057.63, 0.00, 0.00, 0.00
7, -4226.47, -4241.00, -4283.13, -4276.31, 3382.33, 3450.48, -158399.30, -169959.39, 0.00, 0.00, 0.00
8, -4160.89, -4187.80, -4225.57, -4230.04, 3291.36, 3359.71, -158342.30, -169903.19, 0.00, 0.00, 0.00
9, -4260.60, -4267.60, -4315.50, -4303.83, 3447.00, 3515.06, -158431.97, -169993.75, 0.00, 0.00, 0.00
10, -4342.03, -4334.09, -4387.45, -4362.81, 3560.10, 3627.96, -158501.16, -170062.30, 0.00, 0.00, 0.00
11, -4250.23, -4260.00, -4304.19, -4293.21, 3418.61, 3486.69, -158419.59, -169979.69, 0.00, 0.00, 0.00
12, -4158.01, -4185.36, -4222.31, -4226.69, 3285.51, 3353.70, -158337.78, -169898.31, 0.00, 0.00, 0.00
13, -4230.43, -4242.07, -4287.80, -4279.87, 3404.06, 3472.08, -158403.61, -169965.44, 0.00, 0.00, 0.00
14, -4335.99, -4328.06, -4381.55, -4357.00, 3555.18, 3622.95, -158494.89, -170056.45, 0.00, 0.00, 0.00
15, -4270.35, -4275.37, -4321.71, -4306.89, 3450.75, 3518.66, -158435.80, -169995.94, 0.00, 0.00, 0.00
16, -4157.56, -4184.22, -4219.52, -4223.50, 3285.57, 3353.79, -158335.13, -169895.31, 0.00, 0.00, 0.00
17, -4207.18, -4223.52, -4266.90, -4263.06, 3369.06, 3437.23, -158382.16, -169943.75, 0.00, 0.00, 0.00
18, -4328.53, -4322.18, -4374.71, -4351.64, 3545.90, 3613.76, -158487.81, -170049.81, 0.00, 0.00, 0.00
19, -4293.81, -4294.82, -4342.50, -4324.30, 3485.82, 3553.77, -158455.84, -170016.34, 0.00, 0.00, 0.00
20, -4174.03, -4198.75, -4236.13, -4237.96, 3306.25, 3374.44, -158349.94, -169909.89, 0.00, 0.00, 0.00
21, -4189.10, -4209.37, -4251.84, -4251.21, 3340.31, 3408.53, -158365.77, -169927.13, 0.00, 0.00, 0.00
22, -4316.70, -4312.66, -4364.94, -4344.06, 3529.01, 3596.91, -158477.34, -170039.30, 0.00, 0.00, 0.00
23, -4312.93, -4309.91, -4359.93, -4338.90, 3514.95, 3582.81, -158471.84, -170032.59, 0.00, 0.00, 0.00
24, -4187.29, -4208.77, -4246.99, -4246.18, 3326.63, 3394.83, -158360.31, -169920.48, 0.00, 0.00, 0.00
25, -4170.81, -4194.51, -4233.82, -4235.90, 3311.95, 3380.21, -158347.22, -169908.36, 0.00, 0.00, 0.00
26, -4292.90, -4292.52, -4342.99, -4325.29, 3497.06, 3565.01, -158455.06, -170016.73, 0.00, 0.00, 0.00
27, -4328.57, -4322.89, -4374.71, -4351.68, 3539.02, 3606.88, -158485.08, -170045.81, 0.00, 0.00, 0.00
28, -4211.45, -4228.75, -4269.27, -4264.80, 3360.56, 3428.67, -158381.42, -169941.36, 0.00, 0.00, 0.00
29, -4162.97, -4188.81, -4226.92, -4230.58, 3296.79, 3365.08, -158339.38, -169900.30, 0.00, 0.00, 0.00
30, -4271.13, -4274.93, -4323.36, -4309.01, 3464.92, 3532.92, -158435.78, -169997.80, 0.00, 0.00, 0.00
31, -4333.73, -4326.05, -4378.66, -4354.19, 3549.81, 3617.65, -158488.56, -170049.72, 0.00, 0.00, 0.00
32, -4230.83, -4243.41, -4285.34, -4276.98, 3391.39, 3459.45, -158397.11, -169957.05, 0.00, 0.00, 0.00
33, -4153.38, -4180.47, -4215.92, -4220.72, 3282.31, 3350.55, -158328.47, -169889.14, 0.00, 0.00, 0.00
34, -4244.77, -4253.25, -4299.98, -4289.75, 3426.81, 3494.94, -158411.50, -169973.52, 0.00, 0.00, 0.00
35, -4338.45, -4330.27, -4383.53, -4358.88, 3557.70, 3625.63, -158492.45, -170053.94, 0.00, 0.00, 0.00
36, -4256.64, -4264.62, -4309.46, -4297.21, 3429.50, 3497.58, -158419.53, -169979.73, 0.00, 0.00, 0.00
37, -4156.75, -4183.96, -4219.92, -4224.50, 3284.45, 3352.83, -158330.83, -169891.48, 0.00, 0.00, 0.00
38, -4223.97, -4237.02, -4282.53, -4276.27, 3394.49, 3462.71, -158393.31, -169955.19, 0.00, 0.00, 0.00
39, -4333.20, -4325.60, -4378.62, -4354.43, 3552.47, 3620.36, -158486.88, -170048.56, 0.00, 0.00, 0.00
40, -4276.45, -4279.91, -4326.02, -4309.77, 3461.48, 3529.43, -158435.48, -169995.94, 0.00, 0.00, 0.00
41, -4161.16, -4187.17, -4222.94, -4226.13, 3290.65, 3358.89, -158333.19, -169893.69, 0.00, 0.00, 0.00
42, -4200.14, -4217.91, -4260.60, -4257.92, 3358.42, 3426.52, -158370.55, -169932.31, 0.00, 0.00, 0.00
43, -4324.44, -4318.74, -4371.00, -4348.55, 3540.78, 3608.58, -158478.98, -170041.03, 0.00, 0.00, 0.00
44, -4299.60, -4299.07, -4347.59, -4328.21, 3495.61, 3563.52, -158455.41, -170016.06, 0.00, 0.00, 0.00
45, -4177.47, -4201.03, -4238.61, -4239.57, 3312.10, 3380.34, -158347.11, -169907.39, 0.00, 0.00, 0.00
46, -4183.73, -4205.12, -4246.36, -4246.63, 3331.33, 3399.57, -158355.08, -169916.56, 0.00, 0.00, 0.00
47, -4310.47, -4307.54, -4358.90, -4338.88, 3520.27, 3588.21, -158466.28, -170028.55, 0.00, 0.00, 0.00
48, -4317.22, -4313.19, -4363.95, -4342.07, 3522.72, 3590.63, -158470.22, -170031.09, 0.00, 0.00, 0.00
49, -4191.91, -4211.98, -4250.52, -4248.55, 3334.61, 3402.76, -158358.55, -169918.78, 0.00, 0.00, 0.00
50, -4167.13, -4191.47, -4230.22, -4232.91, 3305.89, 3374.17, -158338.44, -169899.69, 0.00, 0.00, 0.00
51, -4286.89, -4287.65, -4338.07, -4321.31, 3488.17, 3556.21, -158444.77, -170006.67, 0.00, 0.00, 0.00
52, -4327.83, -4321.29, -4373.43, -4349.60, 3540.65, 3608.60, -158478.38, -170039.38, 0.00, 0.00, 0.00
53, -4214.65, -4230.43, -4271.04, -4265.36, 3367.56, 3435.66, -158377.80, -169938.05, 0.00, 0.00, 0.00
54, -4159.12, -4185.54, -4222.60, -4226.80, 3291.25, 3359.53, -158329.83, -169890.84, 0.00, 0.00, 0.00
55, -4264.18, -4269.61, -4317.49, -4304.57, 3454.24, 3522.34, -158424.02, -169985.97, 0.00, 0.00, 0.00
56, -4335.34, -4327.36, -4380.36, -4355.55, 3553.39, 3621.23, -158484.30, -170045.58, 0.00, 0.00, 0.00
57, -4238.70, -4249.83, -4292.79, -4282.91, 3403.95, 3471.96, -158398.41, -169958.59, 0.00, 0.00, 0.00
58, -4154.23, -4181.54, -4217.28, -4221.95, 3282.82, 3351.00, -158323.69, -169884.41, 0.00, 0.00, 0.00
59, -4238.43, -4248.60, -4294.35, -4285.23, 3416.75, 3484.82, -158400.50, -169962.53, 0.00, 0.00, 0.00
60, -4338.38, -4330.23, -4383.27, -4358.52, 3558.22, 3626.21, -158486.64, -170048.28, 0.00, 0.00, 0.00
61, -4265.07, -4271.51, -4316.46, -4302.58, 3442.48, 3510.63, -158421.20, -169981.55, 0.00, 0.00, 0.00
62, -4158.79, -4185.83, -4221.93, -4226.02, 3287.03, 3355.24, -158327.02, -169887.58, 0.00, 0.00, 0.00
63, -4215.18, -4230.13, -4274.46, -4269.27, 3381.33, 3449.48, -158379.36, -169941.22, 0.00, 0.00, 0.00
64, -4332.39, -4325.49, -4378.42, -4354.70, 3551.20, 3619.06, -158481.03, -170042.70, 0.00, 0.00, 0.00
65, -4286.60, -4288.74, -4335.97, -4318.56, 3475.79, 3543.71, -158439.31, -169999.67, 0.00, 0.00, 0.00
66, -4166.72, -4192.00, -4228.53, -4231.07, 3298.07, 3366.35, -158332.89, -169893.25, 0.00, 0.00, 0.00
67, -4195.58, -4214.56, -4257.27, -4255.46, 3350.66, 3418.83, -158361.39, -169922.97, 0.00, 0.00, 0.00
68, -4321.96, -4316.97, -4369.23, -4347.21, 3536.56, 3604.46, -158471.34, -170033.25, 0.00, 0.00, 0.00
69, -4309.26, -4307.23, -4356.76, -4336.15, 3508.96, 3576.79, -158458.42, -170019.03, 0.00, 0.00, 0.00
70, -4182.21, -4204.65, -4242.23, -4241.91, 3319.37, 3387.45, -158345.14, -169905.30, 0.00, 0.00, 0.00
71, -4175.24, -4197.93, -4237.87, -4238.76, 3319.59, 3387.74, -158340.80, -169902.28, 0.00, 0.00, 0.00
72, -4300.68, -4299.07, -4349.65, -4330.34, 3508.15, 3576.03, -158451.63, -170013.73, 0.00, 0.00, 0.00
73, -4320.01, -4315.07, -4366.03, -4342.94, 3528.76, 3596.55, -158466.53, -170027.53, 0.00, 0.00, 0.00
74, -4198.35, -4217.01, -4256.69, -4253.07, 3344.85, 3412.93, -158358.44, -169918.80, 0.00, 0.00, 0.00
75, -4163.91, -4189.21, -4227.54, -4230.51, 3300.28, 3368.59, -158329.61, -169890.78, 0.00, 0.00, 0.00
76, -4278.32, -4280.76, -4330.00, -4314.09, 3476.10, 3544.16, -158431.44, -169993.39, 0.00, 0.00, 0.00
77, -4332.48, -4325.38, -4377.83, -4353.36, 3547.33, 3615.35, -158476.88, -170037.92, 0.00, 0.00, 0.00
78, -4220.95, -4235.10, -4276.29, -4269.05, 3378.11, 3446.21, -158377.34, -169937.63, 0.00, 0.00, 0.00
79, -4153.33, -4180.29, -4215.78, -4220.10, 3283.45, 3351.73, -158317.59, -169878.64, 0.00, 0.00, 0.00
80, -4250.30, -4257.49, -4304.32, -4292.52, 3436.42, 3504.40, -158405.11, -169967.06, 0.00, 0.00, 0.00
81, -4334.58, -4326.54, -4379.29, -4354.25, 3553.61, 3621.43, -158477.59, -170038.92, 0.00, 0.00, 0.00
82, -4246.14, -4255.57, -4298.89, -4287.53, 3415.55, 3483.61, -158398.84, -169959.11, 0.00, 0.00, 0.00
83, -4152.15, -4179.46, -4214.24, -4218.78, 3280.10, 3348.29, -158315.25, -169875.86, 0.00, 0.00, 0.00
84, -4226.83, -4238.61, -4283.73, -4275.93, 3400.82, 3468.92, -158383.92, -169945.81, 0.00, 0.00, 0.00
85, -4334.61, -4326.60, -4379.87, -4355.17, 3554.60, 3622.50, -158477.34, -170039.08, 0.00, 0.00, 0.00
86, -4271.46, -4276.16, -4322.31, -4307.05, 3453.03, 3521.00, -158420.48, -169980.89, 0.00, 0.00, 0.00
87, -4159.88, -4186.50, -4222.33, -4225.75, 3288.95, 3357.08, -158321.31, -169881.77, 0.00, 0.00, 0.00
88, -4206.20, -4222.69, -4265.65, -4261.58, 3368.41, 3436.47, -158364.78, -169926.58, 0.00, 0.00, 0.00
89, -4327.48, -4321.02, -4373.59, -4350.14, 3545.63, 3613.41, -158470.44, -170032.34, 0.00, 0.00, 0.00
90, -4292.27, -4292.70, -4341.13, -4322.42, 3485.73, 3553.59, -158437.94, -169998.58, 0.00, 0.00, 0.00
91, -4170.03, -4194.33, -4231.21, -4232.79, 3303.32, 3371.51, -158329.34, -169889.66, 0.00, 0.00, 0.00
92, -4186.15, -4206.44, -4247.66, -4246.81, 3337.07, 3405.22, -158345.66, -169907.36, 0.00, 0.00, 0.00
93, -4314.13, -4309.98, -4361.85, -4340.62, 3526.73, 3594.58, -158458.22, -170020.23, 0.00, 0.00, 0.00
94, -4314.85, -4311.47, -4362.05, -4340.46, 3518.23, 3586.05, -158457.45, -170018.19, 0.00, 0.00, 0.00
95, -4193.39, -4214.33, -4253.98, -4252.44, 3334.39, 3402.45, -158350.30, -169910.47, 0.00, 0.00, 0.00
96, -4178.61, -4201.79, -4243.12, -4244.80, 3321.27, 3389.44, -158339.63, -169900.86, 0.00, 0.00, 0.00
97, -4303.85, -4303.29, -4354.34, -4336.39, 3508.58, 3576.52, -158449.77, -170011.66, 0.00, 0.00, 0.00
98, -4335.46, -4329.33, -4381.63, -4358.28, 3546.84, 3614.70, -158475.25, -170036.17, 0.00, 0.00, 0.00
99, -4214.00, -4230.87, -4271.73, -4266.86, 3364.41, 3432.51, -158367.11, -169927.08, 0.00, 0.00, 0.00
100, -4164.60, -4190.21, -4229.17, -4232.73, 3299.14, 3367.36, -158324.58, -169885.52, 0.00, 0.00, 0.00
101, -4274.08, -4277.90, -4326.98, -4312.70, 3468.23, 3536.14, -158422.28, -169984.25, 0.00, 0.00, 0.00
102, -4341.25, -4333.53, -4386.69, -4362.19, 3558.04, 3625.77, -158479.42, -170040.53, 0.00, 0.00, 0.00
103, -4237.44, -4249.83, -4292.65, -4283.85, 3398.87, 3466.93, -158386.78, -169946.88, 0.00, 0.00, 0.00
104, -4159.15, -4186.12, -4223.56, -4228.01, 3289.04, 3357.30, -158318.00, -169878.86, 0.00, 0.00, 0.00
105, -4247.86, -4256.35, -4303.94, -4293.64, 3430.57, 3498.63, -158398.36, -169960.38, 0.00, 0.00, 0.00
106, -4339.17, -4330.78, -4384.38, -4359.57, 3559.02, 3626.88, -158476.19, -170037.61, 0.00, 0.00, 0.00
107, -4256.06, -4263.73, -4308.50, -4295.96, 3429.90, 3497.89, -158401.72, -169961.92, 0.00, 0.00, 0.00
108, -4155.06, -4182.03, -4217.44, -4221.95, 3283.07, 3351.26, -158311.97, -169872.45, 0.00, 0.00, 0.00
109, -4221.55, -4234.78, -4280.07, -4273.63, 3391.74, 3459.78, -158373.80, -169935.59, 0.00, 0.00, 0.00
110, -4333.89, -4326.25, -4379.65, -4355.39, 3553.77, 3621.56, -158470.95, -170032.69, 0.00, 0.00, 0.00
111, -4278.62, -4281.72, -4328.50, -4311.96, 3464.52, 3532.49, -158420.78, -169981.14, 0.00, 0.00, 0.00
112, -4163.77, -4189.52, -4226.29, -4229.13, 3294.04, 3362.42, -158319.02, -169879.33, 0.00, 0.00, 0.00
113, -4200.85, -4218.49, -4261.38, -4258.59, 3359.09, 3427.30, -158354.19, -169915.86, 0.00, 0.00, 0.00
114, -4324.97, -4318.96, -4371.38, -4348.76, 3541.50, 3609.27, -158462.22, -170024.13, 0.00, 0.00, 0.00
115, -4302.06, -4301.01, -4350.25, -4330.61, 3499.05, 3566.91, -158440.64, -170001.23, 0.00, 0.00, 0.00
116, -4178.61, -4201.73, -4239.81, -4240.42, 3313.89, 3382.11, -158331.13, -169891.22, 0.00, 0.00, 0.00
117, -4182.55, -4203.87, -4245.18, -4245.36, 3330.05, 3398.27, -158336.73, -169898.11, 0.00, 0.00, 0.00
118, -4306.69, -4303.67, -4355.28, -4335.28, 3516.69, 3584.66, -158445.67, -170007.75, 0.00, 0.00, 0.00
119, -4315.21, -4310.89, -4361.50, -4339.23, 3521.29, 3589.20, -158451.20, -170012.02, 0.00, 0.00, 0.00
120, -4193.43, -4213.13, -4252.24, -4249.83, 3337.09, 3405.24, -158343.13, -169903.30, 0.00, 0.00, 0.00
121, -4167.26, -4191.67, -4230.69, -4233.22, 3306.09, 3374.29, -158321.61, -169882.80, 0.00, 0.00, 0.00
122, -4288.61, -4289.48, -4339.68, -4322.85, 3489.91, 3557.91, -158429.52, -169991.42, 0.00, 0.00, 0.00
123, -4332.13, -4325.38, -4377.88, -4353.69, 3545.61, 3613.61, -158465.64, -170026.58, 0.00, 0.00, 0.00
124, -4217.93, -4233.22, -4274.86, -4268.56, 3371.87, 3440.11, -158364.11, -169924.11, 0.00, 0.00, 0.00
125, -4161.94, -4187.96, -4226.38, -4230.22, 3294.58, 3362.93, -158315.80, -169876.81, 0.00, 0.00, 0.00
126, -4264.44, -4269.65, -4318.29, -4305.08, 3454.89, 3522.88, -158407.56, -169969.72, 0.00, 0.00, 0.00
127, -4338.94, -4330.63, -4384.32, -4359.17, 3557.37, 3625.21, -158470.80, -170032.19, 0.00, 0.00, 0.00
128, -4243.19, -4253.76, -4297.32, -4286.89, 3409.13, 3477.19, -158385.59, -169945.98, 0.00, 0.00, 0.00
129, -4157.85, -4184.74, -4221.82, -4226.18, 3287.09, 3355.40, -158310.56, -169871.59, 0.00, 0.00, 0.00
130, -4242.50, -4252.31, -4299.85, -4290.75, 3421.29, 3489.40, -158388.19, -169950.34, 0.00, 0.00, 0.00
131, -4343.10, -4334.61, -4388.92, -4363.95, 3563.38, 3631.31, -158474.42, -170036.08, 0.00, 0.00, 0.00
132, -4269.36, -4275.15, -4321.44, -4307.18, 3447.35, 3515.35, -158408.08, -169968.50, 0.00, 0.00, 0.00
