%OpenBCI Raw EEG Data
%
%Sample Rate = 250.0 Hz
%First Column = SampleIndex
%Other Columns = EEG data in microvolts with optional columns at end being unscaled Aux data
0, -6525.06, 6402.79, -6670.79, -6538.67, -92551.28, -187500.02, -39869.39, 138700.28, 0.00, 0.00, 0.00, 0.00, 0.00, 0.00, 0.00, 0.00, 0
1, -6522.55, 6397.43, -6668.24, -6536.10, -92548.67, -187500.02, -39897.89, 138683.22, 0.00, 0.00, 0.00, 0.00, 0.00, 0.00, 0.00, 0.00, 0
2, -6518.06, 6391.44, -6663.75, -6531.72, -92544.27, -187500.02, -39910.27, 138672.75, 0.00, 0.00, 0.00, 0.00, 0.00, 0.00, 0.00, 0.00, 0
3, -6518.01, 6394.03, -6663.79, -6531.76, -92544.82, -187500.02, -39883.56, 138691.91, 0.00, 0.00, 0.00, 0.00, 0.00, 0.00, 0.00, 0.00, 0
4, -6520.07, 6397.99, -6665.74, -6533.64, -92547.44, -187500.02, -39867.87, 138705.00, 0.00, 0.00, 0.00, 0.00, 0.00, 0.00, 0.00, 0.00, 0
5, -6520.23, 6395.66, -6665.89, -6533.77, -92547.46, -187500.02, -39893.62, 138694.88, 0.00, 0.00, 0.00, 0.00, 0.00, 0.00, 0.00, 0.00, 0
6, -6518.60, 6391.91, -6664.37, -6532.27, -92545.85, -187500.02, -39913.40, 138680.52, 0.00, 0.00, 0.00, 0.00, 0.00, 0.00, 0.00, 0.00, 0
7, -6519.69, 6395.08, -6665.65, -6533.57, -92547.51, -187500.02, -39891.85, 138687.89, 0.00, 0.00, 0.00, 0.00, 0.00, 0.00, 0.00, 0.00, 0
8, -6522.15, 6400.02, -6667.99, -6535.87, -92550.55, -187500.02, -39870.39, 138707.19, 0.00, 0.00, 0.00, 0.00, 0.00, 0.00, 0.00, 0.00, 0
9, -6522.51, 6398.50, -6668.35, -6536.23, -92550.99, -187500.02, -39890.96, 138695.75, 0.00, 0.00, 0.00, 0.00, 0.00, 0.00, 0.00, 0.00, 0
10, -6518.46, 6391.73, -6664.19, -6532.19, -92546.77, -187500.02, -39916.17, 138681.38, 0.00, 0.00, 0.00, 0.00, 0.00, 0.00, 0.00, 0.00, 0
11, -6515.04, 6389.76, -6660.84, -6528.90, -92543.77, -187500.02, -39901.24, 138684.55, 0.00, 0.00, 0.00, 0.00, 0.00, 0.00, 0.00, 0.00, 0
12, -6516.49, 6394.10, -6662.29, -6530.46, -92545.90, -187500.02, -39875.11, 138703.23, 0.00, 0.00, 0.00, 0.00, 0.00, 0.00, 0.00, 0.00, 0
13, -6520.14, 6396.71, -6665.94, -6533.88, -92549.63, -187500.02, -39889.46, 138699.19, 0.00, 0.00, 0.00, 0.00, 0.00, 0.00, 0.00, 0.00, 0
14, -6516.74, 6390.30, -6662.63, -6530.58, -92546.14, -187500.02, -39920.17, 138678.52, 0.00, 0.00, 0.00, 0.00, 0.00, 0.00, 0.00, 0.00, 0
15, -6516.40, 6390.54, -6662.29, -6530.42, -92546.14, -187500.02, -39913.13, 138683.66, 0.00, 0.00, 0.00, 0.00, 0.00, 0.00, 0.00, 0.00, 0
16, -6520.32, 6397.58, -6666.23, -6534.40, -92550.91, -187500.02, -39883.13, 138704.94, 0.00, 0.00, 0.00, 0.00, 0.00, 0.00, 0.00, 0.00, 0
17, -6522.57, 6399.55, -6668.46, -6536.54, -92553.34, -187500.02, -39886.51, 138705.48, 0.00, 0.00, 0.00, 0.00, 0.00, 0.00, 0.00, 0.00, 0
18, -6520.81, 6394.74, -6666.79, -6534.78, -92551.41, -187500.02, -39917.62, 138684.64, 0.00, 0.00, 0.00, 0.00, 0.00, 0.00, 0.00, 0.00, 0
19, -6517.12, 6390.99, -6663.23, -6531.34, -92548.00, -187500.02, -39917.46, 138682.88, 0.00, 0.00, 0.00, 0.00, 0.00, 0.00, 0.00, 0.00, 0
20, -6518.55, 6395.46, -6664.55, -6532.79, -92550.13, -187500.02, -39886.29, 138704.53, 0.00, 0.00, 0.00, 0.00, 0.00, 0.00, 0.00, 0.00, 0
21, -6520.76, 6398.21, -6666.72, -6534.82, -92552.71, -187500.02, -39883.91, 138710.97, 0.00, 0.00, 0.00, 0.00, 0.00, 0.00, 0.00, 0.00, 0
22, -6519.91, 6394.36, -6666.01, -6534.02, -92551.66, -187500.02, -39916.06, 138696.28, 0.00, 0.00, 0.00, 0.00, 0.00, 0.00, 0.00, 0.00, 0
23, -6517.66, 6391.12, -6663.77, -6531.83, -92549.49, -187500.02, -39924.30, 138688.77, 0.00, 0.00, 0.00, 0.00, 0.00, 0.00, 0.00, 0.00, 0
24, -6519.44, 6395.75, -6665.56, -6533.88, -92552.11, -187500.02, -39895.56, 138703.81, 0.00, 0.00, 0.00, 0.00, 0.00, 0.00, 0.00, 0.00, 0
25, -6521.86, 6399.57, -6667.88, -6536.07, -92554.86, -187500.02, -39884.65, 138715.95, 0.00, 0.00, 0.00, 0.00, 0.00, 0.00, 0.00, 0.00, 0
26, -6519.91, 6394.83, -6665.94, -6534.00, -92552.70, -187500.02, -39913.57, 138695.88, 0.00, 0.00, 0.00, 0.00, 0.00, 0.00, 0.00, 0.00, 0
27, -6518.13, 6391.32, -6664.15, -6532.27, -92551.02, -187500.02, -39930.25, 138684.92, 0.00, 0.00, 0.00, 0.00, 0.00, 0.00, 0.00, 0.00, 0
28, -6518.62, 6394.23, -6664.75, -6532.95, -92552.09, -187500.02, -39904.05, 138698.02, 0.00, 0.00, 0.00, 0.00, 0.00, 0.00, 0.00, 0.00, 0
29, -6520.96, 6398.57, -6666.99, -6535.14, -92554.97, -187500.02, -39885.52, 138716.55, 0.00, 0.00, 0.00, 0.00, 0.00, 0.00, 0.00, 0.00, 0
30, -6520.18, 6395.59, -6666.32, -6534.42, -92554.19, -187500.02, -39910.60, 138704.03, 0.00, 0.00, 0.00, 0.00, 0.00, 0.00, 0.00, 0.00, 0
31, -6515.62, 6388.78, -6661.85, -6529.99, -92549.56, -187500.02, -39934.79, 138687.00, 0.00, 0.00, 0.00, 0.00, 0.00, 0.00, 0.00, 0.00, 0
32, -6517.84, 6392.80, -6664.04, -6532.34, -92552.27, -187500.02, -39914.18, 138697.55, 0.00, 0.00, 0.00, 0.00, 0.00, 0.00, 0.00, 0.00, 0
33, -6519.87, 6397.31, -6665.92, -6534.24, -92554.95, -187500.02, -39889.28, 138717.45, 0.00, 0.00, 0.00, 0.00, 0.00, 0.00, 0.00, 0.00, 0
34, -6520.45, 6396.42, -6666.63, -6534.80, -92555.60, -187500.02, -39906.22, 138713.78, 0.00, 0.00, 0.00, 0.00, 0.00, 0.00, 0.00, 0.00, 0
35, -6518.64, 6391.73, -6664.91, -6533.17, -92553.63, -187500.02, -39935.10, 138694.53, 0.00, 0.00, 0.00, 0.00, 0.00, 0.00, 0.00, 0.00, 0
36, -6514.15, 6388.31, -6660.37, -6528.72, -92549.45, -187500.02, -39922.94, 138703.20, 0.00, 0.00, 0.00, 0.00, 0.00, 0.00, 0.00, 0.00, 0
37, -6514.84, 6392.00, -6660.93, -6529.30, -92550.84, -187500.02, -39894.42, 138725.92, 0.00, 0.00, 0.00, 0.00, 0.00, 0.00, 0.00, 0.00, 0
38, -6517.34, 6393.74, -6663.39, -6531.69, -92553.43, -187500.02, -39903.92, 138723.03, 0.00, 0.00, 0.00, 0.00, 0.00, 0.00, 0.00, 0.00, 0
39, -6512.34, 6385.74, -6658.52, -6526.78, -92548.38, -187500.02, -39934.68, 138705.38, 0.00, 0.00, 0.00, 0.00, 0.00, 0.00, 0.00, 0.00, 0
40, -6510.48, 6384.31, -6656.66, -6525.12, -92546.88, -187500.02, -39928.84, 138702.81, 0.00, 0.00, 0.00, 0.00, 0.00, 0.00, 0.00, 0.00, 0
41, -6514.68, 6391.50, -6660.91, -6529.48, -92551.73, -187500.02, -39899.11, 138720.80, 0.00, 0.00, 0.00, 0.00, 0.00, 0.00, 0.00, 0.00, 0
42, -6517.01, 6393.83, -6663.10, -6531.58, -92554.21, -187500.02, -39901.89, 138722.05, 0.00, 0.00, 0.00, 0.00, 0.00, 0.00, 0.00, 0.00, 0
43, -6512.38, 6386.00, -6658.38, -6526.84, -92549.41, -187500.02, -39933.56, 138699.67, 0.00, 0.00, 0.00, 0.00, 0.00, 0.00, 0.00, 0.00, 0
44, -6509.99, 6383.05, -6655.99, -6524.50, -92547.20, -187500.02, -39936.51, 138697.84, 0.00, 0.00, 0.00, 0.00, 0.00, 0.00, 0.00, 0.00, 0
45, -6510.55, 6386.70, -6656.68, -6525.26, -92548.52, -187500.02, -39905.21, 138713.83, 0.00, 0.00, 0.00, 0.00, 0.00, 0.00, 0.00, 0.00, 0
46, -6515.67, 6392.67, -6661.71, -6530.15, -92553.95, -187500.02, -39897.77, 138721.42, 0.00, 0.00, 0.00, 0.00, 0.00, 0.00, 0.00, 0.00, 0
47, -6513.41, 6387.41, -6659.43, -6527.74, -92551.46, -187500.02, -39929.20, 138703.91, 0.00, 0.00, 0.00, 0.00, 0.00, 0.00, 0.00, 0.00, 0
48, -6508.56, 6381.33, -6654.65, -6523.07, -92546.77, -187500.02, -39941.83, 138697.27, 0.00, 0.00, 0.00, 0.00, 0.00, 0.00, 0.00, 0.00, 0
49, -6510.77, 6386.32, -6656.82, -6525.46, -92549.67, -187500.02, -39914.09, 138707.86, 0.00, 0.00, 0.00, 0.00, 0.00, 0.00, 0.00, 0.00, 0
50, -6515.33, 6392.55, -6661.31, -6529.88, -92554.62, -187500.02, -39900.12, 138718.78, 0.00, 0.00, 0.00, 0.00, 0.00, 0.00, 0.00, 0.00, 0
51, -6512.14, 6386.81, -6658.23, -6526.69, -92551.38, -187500.02, -39927.48, 138701.28, 0.00, 0.00, 0.00, 0.00, 0.00, 0.00, 0.00, 0.00, 0
52, -6508.76, 6381.33, -6654.81, -6523.36, -92548.00, -187500.02, -39946.54, 138691.88, 0.00, 0.00, 0.00, 0.00, 0.00, 0.00, 0.00, 0.00, 0
53, -6509.63, 6384.53, -6655.75, -6524.45, -92549.43, -187500.02, -39925.29, 138700.23, 0.00, 0.00, 0.00, 0.00, 0.00, 0.00, 0.00, 0.00, 0
54, -6510.55, 6387.77, -6656.64, -6525.26, -92550.99, -187500.02, -39903.88, 138718.25, 0.00, 0.00, 0.00, 0.00, 0.00, 0.00, 0.00, 0.00, 0
55, -6509.74, 6385.00, -6655.86, -6524.27, -92550.10, -187500.02, -39925.04, 138703.77, 0.00, 0.00, 0.00, 0.00, 0.00, 0.00, 0.00, 0.00, 0
56, -6509.07, 6381.78, -6655.21, -6523.67, -92549.38, -187500.02, -39950.57, 138689.06, 0.00, 0.00, 0.00, 0.00, 0.00, 0.00, 0.00, 0.00, 0
57, -6507.46, 6381.87, -6653.80, -6522.33, -92548.42, -187500.02, -39933.31, 138694.16, 0.00, 0.00, 0.00, 0.00, 0.00, 0.00, 0.00, 0.00, 0
58, -6508.43, 6385.60, -6654.70, -6523.16, -92549.95, -187500.02, -39908.19, 138713.17, 0.00, 0.00, 0.00, 0.00, 0.00, 0.00, 0.00, 0.00, 0
59, -6509.99, 6385.92, -6656.19, -6524.61, -92551.55, -187500.02, -39923.05, 138708.06, 0.00, 0.00, 0.00, 0.00, 0.00, 0.00, 0.00, 0.00, 0
60, -6506.91, 6379.81, -6653.15, -6521.57, -92548.22, -187500.02, -39951.98, 138689.13, 0.00, 0.00, 0.00, 0.00, 0.00, 0.00, 0.00, 0.00, 0
61, -6505.18, 6378.94, -6651.50, -6520.12, -92546.99, -187500.02, -39942.01, 138688.50, 0.00, 0.00, 0.00, 0.00, 0.00, 0.00, 0.00, 0.00, 0
62, -6508.25, 6385.13, -6654.63, -6523.27, -92550.86, -187500.02, -39913.20, 138710.42, 0.00, 0.00, 0.00, 0.00, 0.00, 0.00, 0.00, 0.00, 0
63, -6508.25, 6384.64, -6654.58, -6523.13, -92551.02, -187500.02, -39920.93, 138708.55, 0.00, 0.00, 0.00, 0.00, 0.00, 0.00, 0.00, 0.00, 0
64, -6507.00, 6380.26, -6653.49, -6521.95, -92549.63, -187500.02, -39952.18, 138689.69, 0.00, 0.00, 0.00, 0.00, 0.00, 0.00, 0.00, 0.00, 0
65, -6504.85, 6378.23, -6651.39, -6520.00, -92547.84, -187500.02, -39948.98, 138684.64, 0.00, 0.00, 0.00, 0.00, 0.00, 0.00, 0.00, 0.00, 0
66, -6505.16, 6381.65, -6651.66, -6520.38, -92548.83, -187500.02, -39917.18, 138699.72, 0.00, 0.00, 0.00, 0.00, 0.00, 0.00, 0.00, 0.00, 0
67, -6508.45, 6385.29, -6654.87, -6523.47, -92552.29, -187500.02, -39915.97, 138702.88, 0.00, 0.00, 0.00, 0.00, 0.00, 0.00, 0.00, 0.00, 0
68, -6510.10, 6383.79, -6656.57, -6525.01, -92553.83, -187500.02, -39948.63, 138685.23, 0.00, 0.00, 0.00, 0.00, 0.00, 0.00, 0.00, 0.00, 0
69, -6507.29, 6380.26, -6653.76, -6522.31, -92551.13, -187500.02, -39954.68, 138675.63, 0.00, 0.00, 0.00, 0.00, 0.00, 0.00, 0.00, 0.00, 0
70, -6508.90, 6384.84, -6655.43, -6524.05, -92553.48, -187500.02, -39924.15, 138686.28, 0.00, 0.00, 0.00, 0.00, 0.00, 0.00, 0.00, 0.00, 0
71, -6510.75, 6387.88, -6657.22, -6525.77, -92555.76, -187500.02, -39914.29, 138695.67, 0.00, 0.00, 0.00, 0.00, 0.00, 0.00, 0.00, 0.00, 0
72, -6510.08, 6384.46, -6656.68, -6525.17, -92554.91, -187500.02, -39942.92, 138676.41, 0.00, 0.00, 0.00, 0.00, 0.00, 0.00, 0.00, 0.00, 0
73, -6510.68, 6383.55, -6657.29, -6525.86, -92555.64, -187500.02, -39957.86, 138668.27, 0.00, 0.00, 0.00, 0.00, 0.00, 0.00, 0.00, 0.00, 0
74, -6513.16, 6388.55, -6659.79, -6528.48, -92558.73, -187500.02, -39932.35, 138676.59, 0.00, 0.00, 0.00, 0.00, 0.00, 0.00, 0.00, 0.00, 0
75, -6511.55, 6388.80, -6658.12, -6526.84, -92557.61, -187500.02, -39917.00, 138691.47, 0.00, 0.00, 0.00, 0.00, 0.00, 0.00, 0.00, 0.00, 0
76, -6509.05, 6384.06, -6655.68, -6524.29, -92554.99, -187500.02, -39941.20, 138673.55, 0.00, 0.00, 0.00, 0.00, 0.00, 0.00, 0.00, 0.00, 0
77, -6505.12, 6377.87, -6651.79, -6520.36, -92551.04, -187500.02, -39962.05, 138664.72, 0.00, 0.00, 0.00, 0.00, 0.00, 0.00, 0.00, 0.00, 0
78, -6505.23, 6380.04, -6651.92, -6520.65, -92551.80, -187500.02, -39941.67, 138672.20, 0.00, 0.00, 0.00, 0.00, 0.00, 0.00, 0.00, 0.00, 0
79, -6507.42, 6384.69, -6653.94, -6522.66, -92554.48, -187500.02, -39919.63, 138689.08, 0.00, 0.00, 0.00, 0.00, 0.00, 0.00, 0.00, 0.00, 0
80, -6509.16, 6384.71, -6655.75, -6524.43, -92556.23, -187500.02, -39938.63, 138679.81, 0.00, 0.00, 0.00, 0.00, 0.00, 0.00, 0.00, 0.00, 0
81, -6503.89, 6376.71, -6650.45, -6519.13, -92550.84, -187500.02, -39965.34, 138664.92, 0.00, 0.00, 0.00, 0.00, 0.00, 0.00, 0.00, 0.00, 0
82, -6500.60, 6374.74, -6647.27, -6516.05, -92548.02, -187500.02, -39951.15, 138664.41, 0.00, 0.00, 0.00, 0.00, 0.00, 0.00, 0.00, 0.00, 0
83, -6501.63, 6378.65, -6648.12, -6516.94, -92549.67, -187500.02, -39923.39, 138685.22, 0.00, 0.00, 0.00, 0.00, 0.00, 0.00, 0.00, 0.00, 0
84, -6500.65, 6376.86, -6647.27, -6515.96, -92548.87, -187500.02, -39935.59, 138682.38, 0.00, 0.00, 0.00, 0.00, 0.00, 0.00, 0.00, 0.00, 0
85, -6499.26, 6372.42, -6646.00, -6514.68, -92547.38, -187500.02, -39965.23, 138666.16, 0.00, 0.00, 0.00, 0.00, 0.00, 0.00, 0.00, 0.00, 0
86, -6494.41, 6368.19, -6641.19, -6510.03, -92542.88, -187500.02, -39957.63, 138667.52, 0.00, 0.00, 0.00, 0.00, 0.00, 0.00, 0.00, 0.00, 0
87, -6497.70, 6374.61, -6644.37, -6513.25, -92546.92, -187500.02, -39926.34, 138681.80, 0.00, 0.00, 0.00, 0.00, 0.00, 0.00, 0.00, 0.00, 0
88, -6498.90, 6375.68, -6645.55, -6514.39, -92548.38, -187500.02, -39929.69, 138685.22, 0.00, 0.00, 0.00, 0.00, 0.00, 0.00, 0.00, 0.00, 0
89, -6497.00, 6370.65, -6643.81, -6512.60, -92546.37, -187500.02, -39962.70, 138669.34, 0.00, 0.00, 0.00, 0.00, 0.00, 0.00, 0.00, 0.00, 0
90, -6494.46, 6367.72, -6641.28, -6510.17, -92544.06, -187500.02, -39963.93, 138667.47, 0.00, 0.00, 0.00, 0.00, 0.00, 0.00, 0.00, 0.00, 0
91, -6496.91, 6373.17, -6643.52, -6512.54, -92547.08, -187500.02, -39933.91, 138681.48, 0.00, 0.00, 0.00, 0.00, 0.00, 0.00, 0.00, 0.00, 0
92, -6498.93, 6375.95, -6645.44, -6514.33, -92549.45, -187500.02, -39930.47, 138687.86, 0.00, 0.00, 0.00, 0.00, 0.00, 0.00, 0.00, 0.00, 0
93, -6497.12, 6371.16, -6643.97, -6512.72, -92547.59, -187500.02, -39960.71, 138676.88, 0.00, 0.00, 0.00, 0.00, 0.00, 0.00, 0.00, 0.00, 0
94, -6496.36, 6369.20, -6643.09, -6511.96, -92546.86, -187500.02, -39968.45, 138670.95, 0.00, 0.00, 0.00, 0.00, 0.00, 0.00, 0.00, 0.00, 0
95, -6498.59, 6374.29, -6645.29, -6514.24, -92549.70, -187500.02, -39939.10, 138683.42, 0.00, 0.00, 0.00, 0.00, 0.00, 0.00, 0.00, 0.00, 0
96, -6500.69, 6377.91, -6647.25, -6516.07, -92552.27, -187500.02, -39927.55, 138693.48, 0.00, 0.00, 0.00, 0.00, 0.00, 0.00, 0.00, 0.00, 0
97, -6500.13, 6374.74, -6646.89, -6515.69, -92551.59, -187500.02, -39957.34, 138684.86, 0.00, 0.00, 0.00, 0.00, 0.00, 0.00, 0.00, 0.00, 0
98, -6497.96, 6370.72, -6644.88, -6513.68, -92549.54, -187500.02, -39974.75, 138673.53, 0.00, 0.00, 0.00, 0.00, 0.00, 0.00, 0.00, 0.00, 0
99, -6499.98, 6375.12, -6646.69, -6515.67, -92552.09, -187500.02, -39949.54, 138689.08, 0.00, 0.00, 0.00, 0.00, 0.00, 0.00, 0.00, 0.00, 0
100, -6502.32, 6379.61, -6648.68, -6517.68, -92555.04, -187500.02, -39929.67, 138702.53, 0.00, 0.00, 0.00, 0.00, 0.00, 0.00, 0.00, 0.00, 0
101, -6500.22, 6375.25, -6646.72, -6515.53, -92552.78, -187500.02, -39953.00, 138696.80, 0.00, 0.00, 0.00, 0.00, 0.00, 0.00, 0.00, 0.00, 0
102, -6494.63, 6367.21, -6641.33, -6510.21, -92547.15, -187500.02, -39978.06, 138685.03, 0.00, 0.00, 0.00, 0.00, 0.00, 0.00, 0.00, 0.00, 0
103, -6495.22, 6369.69, -6642.02, -6511.06, -92548.34, -187500.02, -39959.89, 138692.09, 0.00, 0.00, 0.00, 0.00, 0.00, 0.00, 0.00, 0.00, 0
104, -6501.18, 6378.41, -6647.86, -6516.90, -92555.04, -187500.02, -39935.41, 138706.22, 0.00, 0.00, 0.00, 0.00, 0.00, 0.00, 0.00, 0.00, 0
105, -6500.83, 6376.57, -6647.54, -6516.49, -92554.68, -187500.02, -39952.20, 138703.33, 0.00, 0.00, 0.00, 0.00, 0.00, 0.00, 0.00, 0.00, 0
106, -6497.43, 6370.29, -6644.26, -6513.10, -92551.15, -187500.02, -39980.77, 138691.27, 0.00, 0.00, 0.00, 0.00, 0.00, 0.00, 0.00, 0.00, 0
107, -6496.85, 6370.83, -6643.70, -6512.69, -92550.95, -187500.02, -39968.89, 138695.44, 0.00, 0.00, 0.00, 0.00, 0.00, 0.00, 0.00, 0.00, 0
108, -6501.50, 6378.38, -6648.06, -6517.12, -92556.34, -187500.02, -39939.86, 138710.41, 0.00, 0.00, 0.00, 0.00, 0.00, 0.00, 0.00, 0.00, 0
109, -6500.58, 6376.75, -6647.19, -6516.11, -92555.55, -187500.02, -39950.19, 138710.55, 0.00, 0.00, 0.00, 0.00, 0.00, 0.00, 0.00, 0.00, 0
110, -6497.52, 6370.60, -6644.39, -6513.23, -92552.36, -187500.02, -39981.79, 138700.80, 0.00, 0.00, 0.00, 0.00, 0.00, 0.00, 0.00, 0.00, 0
111, -6497.72, 6371.01, -6644.48, -6513.54, -92552.76, -187500.02, -39976.90, 138699.59, 0.00, 0.00, 0.00, 0.00, 0.00, 0.00, 0.00, 0.00, 0
112, -6498.90, 6375.34, -6645.49, -6514.53, -92554.59, -187500.02, -39945.88, 138713.05, 0.00, 0.00, 0.00, 0.00, 0.00, 0.00, 0.00, 0.00, 0
113, -6499.55, 6376.21, -6646.11, -6515.00, -92555.51, -187500.02, -39945.85, 138716.44, 0.00, 0.00, 0.00, 0.00, 0.00, 0.00, 0.00, 0.00, 0
114, -6496.78, 6370.38, -6643.68, -6512.56, -92552.67, -187500.02, -39977.30, 138704.55, 0.00, 0.00, 0.00, 0.00, 0.00, 0.00, 0.00, 0.00, 0
115, -6493.90, 6366.87, -6640.86, -6509.81, -92550.03, -187500.02, -39981.59, 138700.30, 0.00, 0.00, 0.00, 0.00, 0.00, 0.00, 0.00, 0.00, 0
116, -6493.94, 6369.89, -6640.73, -6509.72, -92550.79, -187500.02, -39951.26, 138712.06, 0.00, 0.00, 0.00, 0.00, 0.00, 0.00, 0.00, 0.00, 0
117, -6496.56, 6373.51, -6643.12, -6512.07, -92553.70, -187500.02, -39943.88, 138718.56, 0.00, 0.00, 0.00, 0.00, 0.00, 0.00, 0.00, 0.00, 0
118, -6495.13, 6369.22, -6642.04, -6510.86, -92552.13, -187500.02, -39975.45, 138708.73, 0.00, 0.00, 0.00, 0.00, 0.00, 0.00, 0.00, 0.00, 0
119, -6493.20, 6365.84, -6640.03, -6509.07, -92550.23, -187500.02, -39987.76, 138701.08, 0.00, 0.00, 0.00, 0.00, 0.00, 0.00, 0.00, 0.00, 0
120, -6493.94, 6369.26, -6640.64, -6509.74, -92551.66, -187500.02, -39959.96, 138708.78, 0.00, 0.00, 0.00, 0.00, 0.00, 0.00, 0.00, 0.00, 0
121, -6495.08, 6372.17, -6641.55, -6510.64, -92553.25, -187500.02, -39944.33, 138718.50, 0.00, 0.00, 0.00, 0.00, 0.00, 0.00, 0.00, 0.00, 0
122, -6494.21, 6368.91, -6641.02, -6509.97, -92552.34, -187500.02, -39970.26, 138712.59, 0.00, 0.00, 0.00, 0.00, 0.00, 0.00, 0.00, 0.00, 0
123, -6488.29, 6360.99, -6635.18, -6504.13, -92546.43, -187500.02, -39989.26, 138706.55, 0.00, 0.00, 0.00, 0.00, 0.00, 0.00, 0.00, 0.00, 0
124, -6488.85, 6363.77, -6635.72, -6504.69, -92547.62, -187500.02, -39967.20, 138711.14, 0.00, 0.00, 0.00, 0.00, 0.00, 0.00, 0.00, 0.00, 0
125, -6490.86, 6368.08, -6637.44, -6506.46, -92550.21, -187500.02, -39946.32, 138722.61, 0.00, 0.00, 0.00, 0.00, 0.00, 0.00, 0.00, 0.00, 0
126, -6491.93, 6367.25, -6638.76, -6507.62, -92551.24, -187500.02, -39969.32, 138715.19, 0.00, 0.00, 0.00, 0.00, 0.00, 0.00, 0.00, 0.00, 0
127, -6491.75, 6364.52, -6638.78, -6507.67, -92550.99, -187500.02, -39995.70, 138704.58, 0.00, 0.00, 0.00, 0.00, 0.00, 0.00, 0.00, 0.00, 0
128, -6490.86, 6365.06, -6637.82, -6506.91, -92550.48, -187500.02, -39978.86, 138706.30, 0.00, 0.00, 0.00, 0.00, 0.00, 0.00, 0.00, 0.00, 0
129, -6490.30, 6367.21, -6636.84, -6505.99, -92550.45, -187500.02, -39950.30, 138719.91, 0.00, 0.00, 0.00, 0.00, 0.00, 0.00, 0.00, 0.00, 0
130, -6488.64, 6364.52, -6635.34, -6504.38, -92548.96, -187500.02, -39963.66, 138716.75, 0.00, 0.00, 0.00, 0.00, 0.00, 0.00, 0.00, 0.00, 0
131, -6484.38, 6357.19, -6631.23, -6500.20, -92544.58, -187500.02, -39993.35, 138703.66, 0.00, 0.00, 0.00, 0.00, 0.00, 0.00, 0.00, 0.00, 0
132, -6483.88, 6357.39, -6630.58, -6499.86, -92544.42, -187500.02, -39984.57, 138699.56, 0.00, 0.00, 0.00, 0.00, 0.00, 0.00, 0.00, 0.00, 0
133, -6490.12, 6366.69, -6636.99, -6506.32, -92551.44, -187500.02, -39895.05, 138717.92, 0.00, 0.00, 0.00, 0.00, 0.00, 0.00, 0.00, 0.00, 0
134, -6492.31, 6368.55, -6639.34, -6508.51, -92553.83, -187500.02, -39808.84, 138715.08, 0.00, 0.00, 0.00, 0.00, 0.00, 0.00, 0.00, 0.00, 0
135, -6489.18, 6362.22, -6636.10, -6505.05, -92550.34, -187500.02, -39805.37, 138697.22, 0.00, 0.00, 0.00, 0.00, 0.00, 0.00, 0.00, 0.00, 0
136, -6484.89, 6357.98, -6631.96, -6501.09, -92546.41, -187500.02, -39774.61, 138691.77, 0.00, 0.00, 0.00, 0.00, 0.00, 0.00, 0.00, 0.00, 0
137, -6485.51, 6361.84, -6632.63, -6502.03, -92547.82, -187500.02, -39717.51, 138702.94, 0.00, 0.00, 0.00, 0.00, 0.00, 0.00, 0.00, 0.00, 0
138, -6488.06, 6364.79, -6635.27, -6504.51, -92550.73, -187500.02, -39688.67, 138707.30, 0.00, 0.00, 0.00, 0.00, 0.00, 0.00, 0.00, 0.00, 0
139, -6489.02, 6362.74, -6636.21, -6505.50, -92551.55, -187500.02, -39692.67, 138687.30, 0.00, 0.00, 0.00, 0.00, 0.00, 0.00, 0.00, 0.00, 0
140, -6487.97, 6360.77, -6635.20, -6504.51, -92550.63, -187500.02, -39672.87, 138675.14, 0.00, 0.00, 0.00, 0.00, 0.00, 0.00, 0.00, 0.00, 0
141, -6490.48, 6366.09, -6637.75, -6507.15, -92553.81, -187500.02, -39619.27, 138682.88, 0.00, 0.00, 0.00, 0.00, 0.00, 0.00, 0.00, 0.00, 0
142, -6491.82, 6368.75, -6639.12, -6508.40, -92555.58, -187500.02, -39598.02, 138690.78, 0.00, 0.00, 0.00, 0.00, 0.00, 0.00, 0.00, 0.00, 0
143, -6488.33, 6362.45, -6635.63, -6504.83, -92551.93, -187500.02, -39697.61, 138675.83, 0.00, 0.00, 0.00, 0.00, 0.00, 0.00, 0.00, 0.00, 0
144, -6484.49, 6356.90, -6631.76, -6501.05, -92548.00, -187500.02, -39755.68, 138660.63, 0.00, 0.00, 0.00, 0.00, 0.00, 0.00, 0.00, 0.00, 0
145, -6485.40, 6360.48, -6632.90, -6502.32, -92549.72, -187500.02, -39738.85, 138666.70, 0.00, 0.00, 0.00, 0.00, 0.00, 0.00, 0.00, 0.00, 0
146, -6489.29, 6366.49, -6636.93, -6506.28, -92554.15, -187500.02, -39729.24, 138674.53, 0.00, 0.00, 0.00, 0.00, 0.00, 0.00, 0.00, 0.00, 0
147, -6490.19, 6365.02, -6637.73, -6506.91, -92554.86, -187500.02, -39762.46, 138661.52, 0.00, 0.00, 0.00, 0.00, 0.00, 0.00, 0.00, 0.00, 0
148, -6487.82, 6360.21, -6635.20, -6504.49, -92552.40, -187500.02, -39792.34, 138646.55, 0.00, 0.00, 0.00, 0.00, 0.00, 0.00, 0.00, 0.00, 0
149, -6483.44, 6357.82, -6630.91, -6500.33, -92548.49, -187500.02, -39777.54, 138650.22, 0.00, 0.00, 0.00, 0.00, 0.00, 0.00, 0.00, 0.00, 0
150, -6484.40, 6361.42, -6631.92, -6501.36, -92550.01, -187500.02, -39759.53, 138661.95, 0.00, 0.00, 0.00, 0.00, 0.00, 0.00, 0.00, 0.00, 0
151, -6486.19, 6361.55, -6633.68, -6502.90, -92551.84, -187500.02, -39783.09, 138652.30, 0.00, 0.00, 0.00, 0.00, 0.00, 0.00, 0.00, 0.00, 0
152, -6483.70, 6356.37, -6631.18, -6500.47, -92549.27, -187500.02, -39814.54, 138637.73, 0.00, 0.00, 0.00, 0.00, 0.00, 0.00, 0.00, 0.00, 0
153, -6481.69, 6355.52, -6629.21, -6498.64, -92547.75, -187500.02, -39807.02, 138635.73, 0.00, 0.00, 0.00, 0.00, 0.00, 0.00, 0.00, 0.00, 0
154, -6486.57, 6363.50, -6634.24, -6503.69, -92553.36, -187500.02, -39783.80, 138651.91, 0.00, 0.00, 0.00, 0.00, 0.00, 0.00, 0.00, 0.00, 0
155, -6490.88, 6366.89, -6638.42, -6507.80, -92557.70, -187500.02, -39798.84, 138646.23, 0.00, 0.00, 0.00, 0.00, 0.00, 0.00, 0.00, 0.00, 0
156, -6487.79, 6360.61, -6635.18, -6504.56, -92554.34, -187500.02, -39833.58, 138630.61, 0.00, 0.00, 0.00, 0.00, 0.00, 0.00, 0.00, 0.00, 0
157, -6486.57, 6359.81, -6633.93, -6503.49, -92553.41, -187500.02, -39831.39, 138628.48, 0.00, 0.00, 0.00, 0.00, 0.00, 0.00, 0.00, 0.00, 0
158, -6487.37, 6363.81, -6634.91, -6504.40, -92555.02, -187500.02, -39805.35, 138645.36, 0.00, 0.00, 0.00, 0.00, 0.00, 0.00, 0.00, 0.00, 0
159, -6488.38, 6364.77, -6635.99, -6505.18, -92556.11, -187500.02, -39812.97, 138645.45, 0.00, 0.00, 0.00, 0.00, 0.00, 0.00, 0.00, 0.00, 0
160, -6485.31, 6358.60, -6632.86, -6502.12, -92552.89, -187500.02, -39846.59, 138625.41, 0.00, 0.00, 0.00, 0.00, 0.00, 0.00, 0.00, 0.00, 0
161, -6483.66, 6356.52, -6631.29, -6500.54, -92551.46, -187500.02, -39852.02, 138620.13, 0.00, 0.00, 0.00, 0.00, 0.00, 0.00, 0.00, 0.00, 0
162, -6483.97, 6359.88, -6631.70, -6501.07, -92552.47, -187500.02, -39826.43, 138631.84, 0.00, 0.00, 0.00, 0.00, 0.00, 0.00, 0.00, 0.00, 0
163, -6483.17, 6359.88, -6630.89, -6500.27, -92551.95, -187500.02, -39823.90, 138638.67, 0.00, 0.00, 0.00, 0.00, 0.00, 0.00, 0.00, 0.00, 0
164, -6479.86, 6353.57, -6627.54, -6496.78, -92548.45, -187500.02, -39857.43, 138618.86, 0.00, 0.00, 0.00, 0.00, 0.00, 0.00, 0.00, 0.00, 0
165, -6478.74, 6351.29, -6626.42, -6495.77, -92547.33, -187500.02, -39870.53, 138612.38, 0.00, 0.00, 0.00, 0.00, 0.00, 0.00, 0.00, 0.00, 0
166, -6478.90, 6354.33, -6626.67, -6496.15, -92548.31, -187500.02, -39843.70, 138621.00, 0.00, 0.00, 0.00, 0.00, 0.00, 0.00, 0.00, 0.00, 0
167, -6480.53, 6357.51, -6628.32, -6497.63, -92550.34, -187500.02, -39831.81, 138632.63, 0.00, 0.00, 0.00, 0.00, 0.00, 0.00, 0.00, 0.00, 0
168, -6479.82, 6354.13, -6627.54, -6496.78, -92549.43, -187500.02, -39862.57, 138616.48, 0.00, 0.00, 0.00, 0.00, 0.00, 0.00, 0.00, 0.00, 0
169, -6476.40, 6348.77, -6624.10, -6493.45, -92546.01, -187500.02, -39884.07, 138603.36, 0.00, 0.00, 0.00, 0.00, 0.00, 0.00, 0.00, 0.00, 0
170, -6475.72, 6350.42, -6623.56, -6493.05, -92545.92, -187500.02, -39862.37, 138608.59, 0.00, 0.00, 0.00, 0.00, 0.00, 0.00, 0.00, 0.00, 0
171, -6480.80, 6357.75, -6628.61, -6498.01, -92551.48, -187500.02, -39845.83, 138626.20, 0.00, 0.00, 0.00, 0.00, 0.00, 0.00, 0.00, 0.00, 0
172, -6483.39, 6358.31, -6631.14, -6500.40, -92554.08, -187500.02, -39871.20, 138613.48, 0.00, 0.00, 0.00, 0.00, 0.00, 0.00, 0.00, 0.00, 0
173, -6480.78, 6353.10, -6628.43, -6497.74, -92551.30, -187500.02, -39896.39, 138601.48, 0.00, 0.00, 0.00, 0.00, 0.00, 0.00, 0.00, 0.00, 0
174, -6480.31, 6354.29, -6628.07, -6497.47, -92551.40, -187500.02, -39879.45, 138604.53, 0.00, 0.00, 0.00, 0.00, 0.00, 0.00, 0.00, 0.00, 0
175, -6483.39, 6360.14, -6631.07, -6500.54, -92555.09, -187500.02, -39853.70, 138623.22, 0.00, 0.00, 0.00, 0.00, 0.00, 0.00, 0.00, 0.00, 0
176, -6480.82, 6356.19, -6628.43, -6497.79, -92552.40, -187500.02, -39870.35, 138616.70, 0.00, 0.00, 0.00, 0.00, 0.00, 0.00, 0.00, 0.00, 0
177, -6475.59, 6348.12, -6623.22, -6492.58, -92547.04, -187500.02, -39901.39, 138603.41, 0.00, 0.00, 0.00, 0.00, 0.00, 0.00, 0.00, 0.00, 0
178, -6476.31, 6349.82, -6624.03, -6493.54, -92548.27, -187500.02, -39893.59, 138608.28, 0.00, 0.00, 0.00, 0.00, 0.00, 0.00, 0.00, 0.00, 0
179, -6478.18, 6354.78, -6625.82, -6495.39, -92550.84, -187500.02, -39867.64, 138621.06, 0.00, 0.00, 0.00, 0.00, 0.00, 0.00, 0.00, 0.00, 0
180, -6481.65, 6357.73, -6629.26, -6498.77, -92554.41, -187500.02, -39876.43, 138623.41, 0.00, 0.00, 0.00, 0.00, 0.00, 0.00, 0.00, 0.00, 0
181, -6475.72, 6348.57, -6623.36, -6492.82, -92548.16, -187500.02, -39909.30, 138604.92, 0.00, 0.00, 0.00, 0.00, 0.00, 0.00, 0.00, 0.00, 0
182, -6472.82, 6345.77, -6620.50, -6490.10, -92545.59, -187500.02, -39909.08, 138609.94, 0.00, 0.00, 0.00, 0.00, 0.00, 0.00, 0.00, 0.00, 0
183, -6478.03, 6354.20, -6625.71, -6495.22, -92551.48, -187500.02, -39880.38, 138631.53, 0.00, 0.00, 0.00, 0.00, 0.00, 0.00, 0.00, 0.00, 0
184, -6477.42, 6353.86, -6624.83, -6494.41, -92551.20, -187500.02, -39881.93, 138638.13, 0.00, 0.00, 0.00, 0.00, 0.00, 0.00, 0.00, 0.00, 0
185, -6475.52, 6348.86, -6623.22, -6492.67, -92549.12, -187500.02, -39914.05, 138625.81, 0.00, 0.00, 0.00, 0.00, 0.00, 0.00, 0.00, 0.00, 0
186, -6474.23, 6346.89, -6622.06, -6491.59, -92548.00, -187500.02, -39919.86, 138623.08, 0.00, 0.00, 0.00, 0.00, 0.00, 0.00, 0.00, 0.00, 0
187, -6472.64, 6348.41, -6620.50, -6490.16, -92547.17, -187500.02, -39889.88, 138647.78, 0.00, 0.00, 0.00, 0.00, 0.00, 0.00, 0.00, 0.00, 0
188, -6475.52, 6352.39, -6623.18, -6492.78, -92550.34, -187500.02, -39881.55, 138654.97, 0.00, 0.00, 0.00, 0.00, 0.00, 0.00, 0.00, 0.00, 0
189, -6474.12, 6348.10, -6621.86, -6491.37, -92548.78, -187500.02, -39912.26, 138642.86, 0.00, 0.00, 0.00, 0.00, 0.00, 0.00, 0.00, 0.00, 0
190, -6471.52, 6344.03, -6619.31, -6488.85, -92546.32, -187500.02, -39926.36, 138632.94, 0.00, 0.00, 0.00, 0.00, 0.00, 0.00, 0.00, 0.00, 0
191, -6472.69, 6347.81, -6620.45, -6490.10, -92548.09, -187500.02, -39899.96, 138656.19, 0.00, 0.00, 0.00, 0.00, 0.00, 0.00, 0.00, 0.00, 0
192, -6478.63, 6355.61, -6626.22, -6495.80, -92554.52, -187500.02, -39885.50, 138667.22, 0.00, 0.00, 0.00, 0.00, 0.00, 0.00, 0.00, 0.00, 0
193, -6479.57, 6354.11, -6627.31, -6496.80, -92555.30, -187500.02, -39912.55, 138659.22, 0.00, 0.00, 0.00, 0.00, 0.00, 0.00, 0.00, 0.00, 0
194, -6475.50, 6347.90, -6623.27, -6492.89, -92551.17, -187500.02, -39933.94, 138645.39, 0.00, 0.00, 0.00, 0.00, 0.00, 0.00, 0.00, 0.00, 0
195, -6473.20, 6347.72, -6621.06, -6490.81, -92549.54, -187500.02, -39912.26, 138663.64, 0.00, 0.00, 0.00, 0.00, 0.00, 0.00, 0.00, 0.00, 0
196, -6475.43, 6352.50, -6623.18, -6492.78, -92552.36, -187500.02, -39890.75, 138680.05, 0.00, 0.00, 0.00, 0.00, 0.00, 0.00, 0.00, 0.00, 0
197, -6474.79, 6350.18, -6622.62, -6492.13, -92551.66, -187500.02, -39912.08, 138673.97, 0.00, 0.00, 0.00, 0.00, 0.00, 0.00, 0.00, 0.00, 0
198, -6470.85, 6343.40, -6618.57, -6488.17, -92547.44, -187500.02, -39938.52, 138658.73, 0.00, 0.00, 0.00, 0.00, 0.00, 0.00, 0.00, 0.00, 0
199, -6470.41, 6344.41, -6618.19, -6488.02, -92547.51, -187500.02, -39925.33, 138665.39, 0.00, 0.00, 0.00, 0.00, 0.00, 0.00, 0.00, 0.00, 0
200, -6474.43, 6351.27, -6622.15, -6491.93, -92552.18, -187500.02, -39899.34, 138684.25, 0.00, 0.00, 0.00, 0.00, 0.00, 0.00, 0.00, 0.00, 0
201, -6475.66, 6351.56, -6623.56, -6493.07, -92553.54, -187500.02, -39911.74, 138683.88, 0.00, 0.00, 0.00, 0.00, 0.00, 0.00, 0.00, 0.00, 0
202, -6471.75, 6344.56, -6619.63, -6489.18, -92549.41, -187500.02, -39943.44, 138663.42, 0.00, 0.00, 0.00, 0.00, 0.00, 0.00, 0.00, 0.00, 0
203, -6469.24, 6342.60, -6617.14, -6486.90, -92547.28, -187500.02, -39936.31, 138668.50, 0.00, 0.00, 0.00, 0.00, 0.00, 0.00, 0.00, 0.00, 0
204, -6471.03, 6347.49, -6618.95, -6488.64, -92549.72, -187500.02, -39906.40, 138694.27, 0.00, 0.00, 0.00, 0.00, 0.00, 0.00, 0.00, 0.00, 0
205, -6476.42, 6352.66, -6624.21, -6493.76, -92555.28, -187500.02, -39912.70, 138692.53, 0.00, 0.00, 0.00, 0.00, 0.00, 0.00, 0.00, 0.00, 0
206, -6474.25, 6347.40, -6622.17, -6491.64, -92552.98, -187500.02, -39946.72, 138673.97, 0.00, 0.00, 0.00, 0.00, 0.00, 0.00, 0.00, 0.00, 0
207, -6473.78, 6346.80, -6621.73, -6491.33, -92552.73, -187500.02, -39947.73, 138675.53, 0.00, 0.00, 0.00, 0.00, 0.00, 0.00, 0.00, 0.00, 0
208, -6475.70, 6351.83, -6623.65, -6493.36, -92555.28, -187500.02, -39917.20, 138691.88, 0.00, 0.00, 0.00, 0.00, 0.00, 0.00, 0.00, 0.00, 0
209, -6476.13, 6352.83, -6623.98, -6493.54, -92556.02, -187500.02, -39913.00, 138696.38, 0.00, 0.00, 0.00, 0.00, 0.00, 0.00, 0.00, 0.00, 0
210, -6473.85, 6347.65, -6621.84, -6491.37, -92553.54, -187500.02, -39943.64, 138679.05, 0.00, 0.00, 0.00, 0.00, 0.00, 0.00, 0.00, 0.00, 0
211, -6468.97, 6341.73, -6617.01, -6486.72, -92548.76, -187500.02, -39952.82, 138674.08, 0.00, 0.00, 0.00, 0.00, 0.00, 0.00, 0.00, 0.00, 0
212, -6469.67, 6345.30, -6617.81, -6487.57, -92550.19, -187500.02, -39925.33, 138686.84, 0.00, 0.00, 0.00, 0.00, 0.00, 0.00, 0.00, 0.00, 0
213, -6474.94, 6352.05, -6623.04, -6492.67, -92555.84, -187500.02, -39914.16, 138697.06, 0.00, 0.00, 0.00, 0.00, 0.00, 0.00, 0.00, 0.00, 0
214, -6472.55, 6346.93, -6620.63, -6490.32, -92553.30, -187500.02, -39944.00, 138681.42, 0.00, 0.00, 0.00, 0.00, 0.00, 0.00, 0.00, 0.00, 0
215, -6470.52, 6343.18, -6618.57, -6488.38, -92551.26, -187500.02, -39959.98, 138670.95, 0.00, 0.00, 0.00, 0.00, 0.00, 0.00, 0.00, 0.00, 0
216, -6470.20, 6345.30, -6618.28, -6488.24, -92551.55, -187500.02, -39934.88, 138679.03, 0.00, 0.00, 0.00, 0.00, 0.00, 0.00, 0.00, 0.00, 0
217, -6472.01, 6349.19, -6620.07, -6490.03, -92553.90, -187500.02, -39916.75, 138697.27, 0.00, 0.00, 0.00, 0.00, 0.00, 0.00, 0.00, 0.00, 0
218, -6473.15, 6348.19, -6621.28, -6490.99, -92555.02, -187500.02, -39941.79, 138679.66, 0.00, 0.00, 0.00, 0.00, 0.00, 0.00, 0.00, 0.00, 0
219, -6471.70, 6344.23, -6619.74, -6489.52, -92553.43, -187500.02, -39965.16, 138667.84, 0.00, 0.00, 0.00, 0.00, 0.00, 0.00, 0.00, 0.00, 0
220, -6471.25, 6345.66, -6619.49, -6489.31, -92553.56, -187500.02, -39946.23, 138676.09, 0.00, 0.00, 0.00, 0.00, 0.00, 0.00, 0.00, 0.00, 0
221, -6472.42, 6349.44, -6620.63, -6490.43, -92555.20, -187500.02, -39922.81, 138692.38, 0.00, 0.00, 0.00, 0.00, 0.00, 0.00, 0.00, 0.00, 0
222, -6469.96, 6345.46, -6618.08, -6487.86, -92552.73, -187500.02, -39940.27, 138682.53, 0.00, 0.00, 0.00, 0.00, 0.00, 0.00, 0.00, 0.00, 0
223, -6467.01, 6339.71, -6615.09, -6484.91, -92549.63, -187500.02, -39969.30, 138666.86, 0.00, 0.00, 0.00, 0.00, 0.00, 0.00, 0.00, 0.00, 0
224, -6466.20, 6340.12, -6614.37, -6484.40, -92549.20, -187500.02, -39957.86, 138668.30, 0.00, 0.00, 0.00, 0.00, 0.00, 0.00, 0.00, 0.00, 0
225, -6467.45, 6344.34, -6615.60, -6485.72, -92551.09, -187500.02, -39929.65, 138688.64, 0.00, 0.00, 0.00, 0.00, 0.00, 0.00, 0.00, 0.00, 0
226, -6470.41, 6346.62, -6618.55, -6488.47, -92554.15, -187500.02, -39939.50, 138684.39, 0.00, 0.00, 0.00, 0.00, 0.00, 0.00, 0.00, 0.00, 0
227, -6468.80, 6341.95, -6616.88, -6486.86, -92552.47, -187500.02, -39971.11, 138665.39, 0.00, 0.00, 0.00, 0.00, 0.00, 0.00, 0.00, 0.00, 0
228, -6466.56, 6339.98, -6614.69, -6484.71, -92550.52, -187500.02, -39965.95, 138666.19, 0.00, 0.00, 0.00, 0.00, 0.00, 0.00, 0.00, 0.00, 0
229, -6468.42, 6344.97, -6616.70, -6486.57, -92553.01, -187500.02, -39935.61, 138686.52, 0.00, 0.00, 0.00, 0.00, 0.00, 0.00, 0.00, 0.00, 0
230, -6466.67, 6343.27, -6614.89, -6484.69, -92551.41, -187500.02, -39938.03, 138689.58, 0.00, 0.00, 0.00, 0.00, 0.00, 0.00, 0.00, 0.00, 0
231, -6464.95, 6338.42, -6613.14, -6482.92, -92549.56, -187500.02, -39970.48, 138672.75, 0.00, 0.00, 0.00, 0.00, 0.00, 0.00, 0.00, 0.00, 0
232, -6459.18, 6332.20, -6607.33, -6477.31, -92544.09, -187500.02, -39974.35, 138667.63, 0.00, 0.00, 0.00, 0.00, 0.00, 0.00, 0.00, 0.00, 0
233, -6461.78, 6337.93, -6610.01, -6480.13, -92547.35, -187500.02, -39945.56, 138682.38, 0.00, 0.00, 0.00, 0.00, 0.00, 0.00, 0.00, 0.00, 0
234, -6465.53, 6342.62, -6613.79, -6483.77, -92551.44, -187500.02, -39940.04, 138691.14, 0.00, 0.00, 0.00, 0.00, 0.00, 0.00, 0.00, 0.00, 0
235, -6465.55, 6339.76, -6613.84, -6483.66, -92551.24, -187500.02, -39970.98, 138673.19, 0.00, 0.00, 0.00, 0.00, 0.00, 0.00, 0.00, 0.00, 0
236, -6461.80, 6334.55, -6609.99, -6479.90, -92547.48, -187500.02, -39983.16, 138665.72, 0.00, 0.00, 0.00, 0.00, 0.00, 0.00, 0.00, 0.00, 0
237, -6462.94, 6338.42, -6611.18, -6481.27, -92549.30, -187500.02, -39955.78, 138678.23, 0.00, 0.00, 0.00, 0.00, 0.00, 0.00, 0.00, 0.00, 0
238, -6464.33, 6341.44, -6612.52, -6482.50, -92551.10, -187500.02, -39941.76, 138692.92, 0.00, 0.00, 0.00, 0.00, 0.00, 0.00, 0.00, 0.00, 0
239, -6463.92, 6338.46, -6612.03, -6482.01, -92550.59, -187500.02, -39967.51, 138673.61, 0.00, 0.00, 0.00, 0.00, 0.00, 0.00, 0.00, 0.00, 0
240, -6460.46, 6333.01, -6608.63, -6478.70, -92547.13, -187500.02, -39985.91, 138661.92, 0.00, 0.00, 0.00, 0.00, 0.00, 0.00, 0.00, 0.00, 0
241, -6462.65, 6337.48, -6610.98, -6481.09, -92549.98, -187500.02, -39963.73, 138672.08, 0.00, 0.00, 0.00, 0.00, 0.00, 0.00, 0.00, 0.00, 0
242, -6466.63, 6343.85, -6614.93, -6485.05, -92554.52, -187500.02, -39942.59, 138689.73, 0.00, 0.00, 0.00, 0.00, 0.00, 0.00, 0.00, 0.00, 0
243, -6465.62, 6340.99, -6613.90, -6483.97, -92553.41, -187500.02, -39965.48, 138675.98, 0.00, 0.00, 0.00, 0.00, 0.00, 0.00, 0.00, 0.00, 0
244, -6460.08, 6332.74, -6608.29, -6478.23, -92547.64, -187500.02, -39991.79, 138661.95, 0.00, 0.00, 0.00, 0.00, 0.00, 0.00, 0.00, 0.00, 0
245, -6457.78, 6332.00, -6606.08, -6476.17, -92545.70, -187500.02, -39976.03, 138670.17, 0.00, 0.00, 0.00, 0.00, 0.00, 0.00, 0.00, 0.00, 0
246, -6464.84, 6341.97, -6613.08, -6483.21, -92553.52, -187500.02, -39949.25, 138689.81, 0.00, 0.00, 0.00, 0.00, 0.00, 0.00, 0.00, 0.00, 0
247, -6466.69, 6342.53, -6614.93, -6484.96, -92555.42, -187500.02, -39964.14, 138681.58, 0.00, 0.00, 0.00, 0.00, 0.00, 0.00, 0.00, 0.00, 0
248, -6465.49, 6338.35, -6613.68, -6483.70, -92554.05, -187500.02, -39994.38, 138665.09, 0.00, 0.00, 0.00, 0.00, 0.00, 0.00, 0.00, 0.00, 0
249, -6464.03, 6337.79, -6612.29, -6482.43, -92552.91, -187500.02, -39985.75, 138665.91, 0.00, 0.00, 0.00, 0.00, 0.00, 0.00, 0.00, 0.00, 0
250, -6464.82, 6341.52, -6613.01, -6483.32, -92554.28, -187500.02, -39957.34, 138687.73, 0.00, 0.00, 0.00, 0.00, 0.00, 0.00, 0.00, 0.00, 0
251, -6464.46, 6340.83, -6612.70, -6482.92, -92554.15, -187500.02, -39964.29, 138688.34, 0.00, 0.00, 0.00, 0.00, 0.00, 0.00, 0.00, 0.00, 0
252, -6462.05, 6335.36, -6610.44, -6480.55, -92551.59, -187500.02, -39995.81, 138670.98, 0.00, 0.00, 0.00, 0.00, 0.00, 0.00, 0.00, 0.00, 0
253, -6460.64, 6333.95, -6609.05, -6479.30, -92550.44, -187500.02, -39994.64, 138668.59, 0.00, 0.00, 0.00, 0.00, 0.00, 0.00, 0.00, 0.00, 0
254, -6465.67, 6342.04, -6614.08, -6484.33, -92556.13, -187500.02, -39965.12, 138689.33, 0.00, 0.00, 0.00, 0.00, 0.00, 0.00, 0.00, 0.00, 0
255, -6467.79, 6344.61, -6616.09, -6486.25, -92558.48, -187500.02, -39964.23, 138696.13, 0.00, 0.00, 0.00, 0.00, 0.00, 0.00, 0.00, 0.00, 0
0, -6460.73, 6334.55, -6609.16, -6479.30, -92551.26, -187500.02, -39995.41, 138678.36, 0.00, 0.00, 0.00, 0.00, 0.00, 0.00, 0.00, 0.00, 0
1, -6455.34, 6328.34, -6603.78, -6474.09, -92546.05, -187500.02, -40001.11, 138672.88, 0.00, 0.00, 0.00, 0.00, 0.00, 0.00, 0.00, 0.00, 0
2, -6458.40, 6334.35, -6606.82, -6477.09, -92549.83, -187500.02, -39971.27, 138695.83, 0.00, 0.00, 0.00, 0.00, 0.00, 0.00, 0.00, 0.00, 0
3, -6463.65, 6340.81, -6611.85, -6482.14, -92555.42, -187500.02, -39960.58, 138704.06, 0.00, 0.00, 0.00, 0.00, 0.00, 0.00, 0.00, 0.00, 0
4, -6462.76, 6337.12, -6611.04, -6481.16, -92554.26, -187500.02, -39990.13, 138690.83, 0.00, 0.00, 0.00, 0.00, 0.00, 0.00, 0.00, 0.00, 0
5, -6457.98, 6330.64, -6606.26, -6476.48, -92549.54, -187500.02, -40004.91, 138683.55, 0.00, 0.00, 0.00, 0.00, 0.00, 0.00, 0.00, 0.00, 0
6, -6458.00, 6333.32, -6606.39, -6476.82, -92550.28, -187500.02, -39977.14, 138694.45, 0.00, 0.00, 0.00, 0.00, 0.00, 0.00, 0.00, 0.00, 0
7, -6458.94, 6336.32, -6607.38, -6477.80, -92551.73, -187500.02, -39960.69, 138707.50, 0.00, 0.00, 0.00, 0.00, 0.00, 0.00, 0.00, 0.00, 0
8, -6459.27, 6334.26, -6607.71, -6478.07, -92551.95, -187500.02, -39986.46, 138695.09, 0.00, 0.00, 0.00, 0.00, 0.00, 0.00, 0.00, 0.00, 0
9, -6458.31, 6331.00, -6606.68, -6477.11, -92550.79, -187500.02, -40009.96, 138683.63, 0.00, 0.00, 0.00, 0.00, 0.00, 0.00, 0.00, 0.00, 0
10, -6459.12, 6333.88, -6607.60, -6478.12, -92552.13, -187500.02, -39989.41, 138690.31, 0.00, 0.00, 0.00, 0.00, 0.00, 0.00, 0.00, 0.00, 0
11, -6461.69, 6338.87, -6609.95, -6480.58, -92555.28, -187500.02, -39965.30, 138704.48, 0.00, 0.00, 0.00, 0.00, 0.00, 0.00, 0.00, 0.00, 0
12, -6462.09, 6337.59, -6610.33, -6480.82, -92555.69, -187500.02, -39984.05, 138698.89, 0.00, 0.00, 0.00, 0.00, 0.00, 0.00, 0.00, 0.00, 0
13, -6460.64, 6333.37, -6608.90, -6479.28, -92554.05, -187500.02, -40010.56, 138684.39, 0.00, 0.00, 0.00, 0.00, 0.00, 0.00, 0.00, 0.00, 0
14, -6462.54, 6336.65, -6610.89, -6481.47, -92556.38, -187500.02, -39995.90, 138689.22, 0.00, 0.00, 0.00, 0.00, 0.00, 0.00, 0.00, 0.00, 0
15, -6464.57, 6341.50, -6612.81, -6483.41, -92559.02, -187500.02, -39969.48, 138706.30, 0.00, 0.00, 0.00, 0.00, 0.00, 0.00, 0.00, 0.00, 0
16, -6462.27, 6338.26, -6610.57, -6481.16, -92556.80, -187500.02, -39982.33, 138705.88, 0.00, 0.00, 0.00, 0.00, 0.00, 0.00, 0.00, 0.00, 0
17, -6458.40, 6331.40, -6606.86, -6477.33, -92552.78, -187500.02, -40011.99, 138688.61, 0.00, 0.00, 0.00, 0.00, 0.00, 0.00, 0.00, 0.00, 0
18, -6458.56, 6332.11, -6607.13, -6477.67, -92553.30, -187500.02, -40004.37, 138689.47, 0.00, 0.00, 0.00, 0.00, 0.00, 0.00, 0.00, 0.00, 0
19, -6459.97, 6336.59, -6608.56, -6479.21, -92555.30, -187500.02, -39974.48, 138710.63, 0.00, 0.00, 0.00, 0.00, 0.00, 0.00, 0.00, 0.00, 0
20, -6460.97, 6337.48, -6609.37, -6479.90, -92556.49, -187500.02, -39977.86, 138710.58, 0.00, 0.00, 0.00, 0.00, 0.00, 0.00, 0.00, 0.00, 0
21, -6457.66, 6331.04, -6606.08, -6476.51, -92552.83, -187500.02, -40009.87, 138687.52, 0.00, 0.00, 0.00, 0.00, 0.00, 0.00, 0.00, 0.00, 0
22, -6456.23, 6329.30, -6604.69, -6475.19, -92551.51, -187500.02, -40012.59, 138685.03, 0.00, 0.00, 0.00, 0.00, 0.00, 0.00, 0.00, 0.00, 0
23, -6455.50, 6331.60, -6603.89, -6474.58, -92551.48, -187500.02, -39983.22, 138704.02, 0.00, 0.00, 0.00, 0.00, 0.00, 0.00, 0.00, 0.00, 0
24, -6457.33, 6334.13, -6605.63, -6476.17, -92553.59, -187500.02, -39978.66, 138713.47, 0.00, 0.00, 0.00, 0.00, 0.00, 0.00, 0.00, 0.00, 0
25, -6457.37, 6331.24, -6605.77, -6476.17, -92553.48, -187500.02, -40011.16, 138690.88, 0.00, 0.00, 0.00, 0.00, 0.00, 0.00, 0.00, 0.00, 0
26, -6455.12, 6327.91, -6603.51, -6474.12, -92551.26, -187500.02, -40022.34, 138682.91, 0.00, 0.00, 0.00, 0.00, 0.00, 0.00, 0.00, 0.00, 0
27, -6453.82, 6329.37, -6602.30, -6472.98, -92550.59, -187500.02, -39994.22, 138695.56, 0.00, 0.00, 0.00, 0.00, 0.00, 0.00, 0.00, 0.00, 0
28, -6457.75, 6334.71, -6606.06, -6476.66, -92554.97, -187500.02, -39982.62, 138707.03, 0.00, 0.00, 0.00, 0.00, 0.00, 0.00, 0.00, 0.00, 0
29, -6459.18, 6333.43, -6607.42, -6477.89, -92556.16, -187500.02, -40011.32, 138687.14, 0.00, 0.00, 0.00, 0.00, 0.00, 0.00, 0.00, 0.00, 0
30, -6455.76, 6328.20, -6604.07, -6474.61, -92552.70, -187500.02, -40027.88, 138680.03, 0.00, 0.00, 0.00, 0.00, 0.00, 0.00, 0.00, 0.00, 0
31, -6454.71, 6329.48, -6603.11, -6473.82, -92552.18, -187500.02, -40002.60, 138688.45, 0.00, 0.00, 0.00, 0.00, 0.00, 0.00, 0.00, 0.00, 0
32, -6456.41, 6333.37, -6604.76, -6475.43, -92554.41, -187500.02, -39983.38, 138704.95, 0.00, 0.00, 0.00, 0.00, 0.00, 0.00, 0.00, 0.00, 0
33, -6454.27, 6329.25, -6602.71, -6473.27, -92552.27, -187500.02, -40006.52, 138691.03, 0.00, 0.00, 0.00, 0.00, 0.00, 0.00, 0.00, 0.00, 0
34, -6450.69, 6323.11, -6599.02, -6469.60, -92548.45, -187500.02, -40029.63, 138679.61, 0.00, 0.00, 0.00, 0.00, 0.00, 0.00, 0.00, 0.00, 0
35, -6451.79, 6325.95, -6600.09, -6470.85, -92549.95, -187500.02, -40009.46, 138683.38, 0.00, 0.00, 0.00, 0.00, 0.00, 0.00, 0.00, 0.00, 0
36, -6454.60, 6331.58, -6602.84, -6473.53, -92553.41, -187500.02, -39983.18, 138698.34, 0.00, 0.00, 0.00, 0.00, 0.00, 0.00, 0.00, 0.00, 0
37, -6455.61, 6331.13, -6603.91, -6474.41, -92554.39, -187500.02, -39998.82, 138693.70, 0.00, 0.00, 0.00, 0.00, 0.00, 0.00, 0.00, 0.00, 0
38, -6454.63, 6327.31, -6602.93, -6473.49, -92553.27, -187500.02, -40026.56, 138678.89, 0.00, 0.00, 0.00, 0.00, 0.00, 0.00, 0.00, 0.00, 0
39, -6452.19, 6325.86, -6600.51, -6471.23, -92551.24, -187500.02, -40015.70, 138680.56, 0.00, 0.00, 0.00, 0.00, 0.00, 0.00, 0.00, 0.00, 0
40, -6452.95, 6329.75, -6601.36, -6472.10, -92552.73, -187500.02, -39986.80, 138698.00, 0.00, 0.00, 0.00, 0.00, 0.00, 0.00, 0.00, 0.00, 0
41, -6455.56, 6331.67, -6603.85, -6474.54, -92555.51, -187500.02, -39995.47, 138693.36, 0.00, 0.00, 0.00, 0.00, 0.00, 0.00, 0.00, 0.00, 0
42, -6454.02, 6327.06, -6602.21, -6472.86, -92553.77, -187500.02, -40026.25, 138676.36, 0.00, 0.00, 0.00, 0.00, 0.00, 0.00, 0.00, 0.00, 0
43, -6450.91, 6324.27, -6599.26, -6470.02, -92551.06, -187500.02, -40023.84, 138671.14, 0.00, 0.00, 0.00, 0.00, 0.00, 0.00, 0.00, 0.00, 0
44, -6450.20, 6326.62, -6598.61, -6469.40, -92550.95, -187500.02, -39995.38, 138689.94, 0.00, 0.00, 0.00, 0.00, 0.00, 0.00, 0.00, 0.00, 0
45, -6452.79, 6329.43, -6601.19, -6471.75, -92553.74, -187500.02, -39996.14, 138692.69, 0.00, 0.00, 0.00, 0.00, 0.00, 0.00, 0.00, 0.00, 0
46, -6450.31, 6323.87, -6598.70, -6469.20, -92551.04, -187500.02, -40027.50, 138673.80, 0.00, 0.00, 0.00, 0.00, 0.00, 0.00, 0.00, 0.00, 0
47, -6447.29, 6320.25, -6595.69, -6466.29, -92548.11, -187500.02, -40032.96, 138667.92, 0.00, 0.00, 0.00, 0.00, 0.00, 0.00, 0.00, 0.00, 0
48, -6450.02, 6325.95, -6598.50, -6469.24, -92551.55, -187500.02, -40003.45, 138682.31, 0.00, 0.00, 0.00, 0.00, 0.00, 0.00, 0.00, 0.00, 0
49, -6449.33, 6326.35, -6597.77, -6468.53, -92551.17, -187500.02, -39997.26, 138692.30, 0.00, 0.00, 0.00, 0.00, 0.00, 0.00, 0.00, 0.00, 0
50, -6448.93, 6322.97, -6597.32, -6467.97, -92550.59, -187500.02, -40028.33, 138673.08, 0.00, 0.00, 0.00, 0.00, 0.00, 0.00, 0.00, 0.00, 0
51, -6446.78, 6319.35, -6594.99, -6465.78, -92548.38, -187500.02, -40040.67, 138667.78, 0.00, 0.00, 0.00, 0.00, 0.00, 0.00, 0.00, 0.00, 0
52, -6447.16, 6322.39, -6595.57, -6466.25, -92549.43, -187500.02, -40012.32, 138677.91, 0.00, 0.00, 0.00, 0.00, 0.00, 0.00, 0.00, 0.00, 0
53, -6450.20, 6327.42, -6598.75, -6469.35, -92553.01, -187500.02, -39997.68, 138690.64, 0.00, 0.00, 0.00, 0.00, 0.00, 0.00, 0.00, 0.00, 0
54, -6447.49, 6322.26, -6596.02, -6466.56, -92550.19, -187500.02, -40024.62, 138674.91, 0.00, 0.00, 0.00, 0.00, 0.00, 0.00, 0.00, 0.00, 0
55, -6442.15, 6314.75, -6590.66, -6461.15, -92544.76, -187500.02, -40043.86, 138663.67, 0.00, 0.00, 0.00, 0.00, 0.00, 0.00, 0.00, 0.00, 0
56, -6442.31, 6317.16, -6590.86, -6461.60, -92545.41, -187500.02, -40020.51, 138677.33, 0.00, 0.00, 0.00, 0.00, 0.00, 0.00, 0.00, 0.00, 0
57, -6446.04, 6323.26, -6594.39, -6465.17, -92549.70, -187500.02, -39998.64, 138693.83, 0.00, 0.00, 0.00, 0.00, 0.00, 0.00, 0.00, 0.00, 0
58, -6446.71, 6321.99, -6595.13, -6465.76, -92550.32, -187500.02, -40018.96, 138684.39, 0.00, 0.00, 0.00, 0.00, 0.00, 0.00, 0.00, 0.00, 0
59, -6443.38, 6316.07, -6591.77, -6462.49, -92546.86, -187500.02, -40045.56, 138668.19, 0.00, 0.00, 0.00, 0.00, 0.00, 0.00, 0.00, 0.00, 0
60, -6444.92, 6319.02, -6593.45, -6464.33, -92548.87, -187500.02, -40030.18, 138672.72, 0.00, 0.00, 0.00, 0.00, 0.00, 0.00, 0.00, 0.00, 0
61, -6448.59, 6325.50, -6597.14, -6467.95, -92553.20, -187500.02, -40003.27, 138694.56, 0.00, 0.00, 0.00, 0.00, 0.00, 0.00, 0.00, 0.00, 0
62, -6448.08, 6323.80, -6596.47, -6467.19, -92552.58, -187500.02, -40017.98, 138688.45, 0.00, 0.00, 0.00, 0.00, 0.00, 0.00, 0.00, 0.00, 0
63, -6445.51, 6318.30, -6593.88, -6464.50, -92549.79, -187500.02, -40049.34, 138671.84, 0.00, 0.00, 0.00, 0.00, 0.00, 0.00, 0.00, 0.00, 0
64, -6444.97, 6318.46, -6593.41, -6464.21, -92549.56, -187500.02, -40041.20, 138673.89, 0.00, 0.00, 0.00, 0.00, 0.00, 0.00, 0.00, 0.00, 0
65, -6445.64, 6322.17, -6594.12, -6465.00, -92550.88, -187500.02, -40011.77, 138693.33, 0.00, 0.00, 0.00, 0.00, 0.00, 0.00, 0.00, 0.00, 0
66, -6447.92, 6324.22, -6596.47, -6467.16, -92553.41, -187500.02, -40017.31, 138691.50, 0.00, 0.00, 0.00, 0.00, 0.00, 0.00, 0.00, 0.00, 0
67, -6446.24, 6319.40, -6594.68, -6465.38, -92551.51, -187500.02, -40047.78, 138669.53, 0.00, 0.00, 0.00, 0.00, 0.00, 0.00, 0.00, 0.00, 0
68, -6442.89, 6315.95, -6591.31, -6462.16, -92548.24, -187500.02, -40047.08, 138667.00, 0.00, 0.00, 0.00, 0.00, 0.00, 0.00, 0.00, 0.00, 0
69, -6444.14, 6320.36, -6592.65, -6463.54, -92550.23, -187500.02, -40017.22, 138685.44, 0.00, 0.00, 0.00, 0.00, 0.00, 0.00, 0.00, 0.00, 0
70, -6447.99, 6324.69, -6596.36, -6467.19, -92554.37, -187500.02, -40014.16, 138690.17, 0.00, 0.00, 0.00, 0.00, 0.00, 0.00, 0.00, 0.00, 0
71, -6445.71, 6319.37, -6594.14, -6464.82, -92551.84, -187500.02, -40044.18, 138671.78, 0.00, 0.00, 0.00, 0.00, 0.00, 0.00, 0.00, 0.00, 0
72, -6442.09, 6314.84, -6590.66, -6461.38, -92548.38, -187500.02, -40051.51, 138664.81, 0.00, 0.00, 0.00, 0.00, 0.00, 0.00, 0.00, 0.00, 0
73, -6442.98, 6318.73, -6591.77, -6462.58, -92550.16, -187500.02, -40023.08, 138679.67, 0.00, 0.00, 0.00, 0.00, 0.00, 0.00, 0.00, 0.00, 0
74, -6446.69, 6323.87, -6595.46, -6466.20, -92554.34, -187500.02, -40012.57, 138691.36, 0.00, 0.00, 0.00, 0.00, 0.00, 0.00, 0.00, 0.00, 0
75, -6447.27, 6321.65, -6595.91, -6466.58, -92554.59, -187500.02, -40041.27, 138674.11, 0.00, 0.00, 0.00, 0.00, 0.00, 0.00, 0.00, 0.00, 0
76, -6443.45, 6316.11, -6592.02, -6462.76, -92550.70, -187500.02, -40055.49, 138665.84, 0.00, 0.00, 0.00, 0.00, 0.00, 0.00, 0.00, 0.00, 0
77, -6442.76, 6318.01, -6591.46, -6462.36, -92550.68, -187500.02, -40030.61, 138676.08, 0.00, 0.00, 0.00, 0.00, 0.00, 0.00, 0.00, 0.00, 0
78, -6446.29, 6323.60, -6594.93, -6465.76, -92554.70, -187500.02, -40013.64, 138691.31, 0.00, 0.00, 0.00, 0.00, 0.00, 0.00, 0.00, 0.00, 0
79, -6445.26, 6320.22, -6593.97, -6464.59, -92553.56, -187500.02, -40039.19, 138676.98, 0.00, 0.00, 0.00, 0.00, 0.00, 0.00, 0.00, 0.00, 0
80, -6444.25, 6316.89, -6592.85, -6463.70, -92552.45, -187500.02, -40061.32, 138665.88, 0.00, 0.00, 0.00, 0.00, 0.00, 0.00, 0.00, 0.00, 0
81, -6444.28, 6318.93, -6593.00, -6463.99, -92552.96, -187500.02, -40042.59, 138673.66, 0.00, 0.00, 0.00, 0.00, 0.00, 0.00, 0.00, 0.00, 0
82, -6447.23, 6324.45, -6595.84, -6466.85, -92556.47, -187500.02, -40018.29, 138691.97, 0.00, 0.00, 0.00, 0.00, 0.00, 0.00, 0.00, 0.00, 0
83, -6445.53, 6321.07, -6594.08, -6464.95, -92554.63, -187500.02, -40035.46, 138682.05, 0.00, 0.00, 0.00, 0.00, 0.00, 0.00, 0.00, 0.00, 0
84, -6442.53, 6315.31, -6591.06, -6461.91, -92551.44, -187500.02, -40062.50, 138666.00, 0.00, 0.00, 0.00, 0.00, 0.00, 0.00, 0.00, 0.00, 0
85, -6440.70, 6314.77, -6589.38, -6460.37, -92550.10, -187500.02, -40049.25, 138670.80, 0.00, 0.00, 0.00, 0.00, 0.00, 0.00, 0.00, 0.00, 0
86, -6443.65, 6320.67, -6592.36, -6463.30, -92553.79, -187500.02, -40022.36, 138692.14, 0.00, 0.00, 0.00, 0.00, 0.00, 0.00, 0.00, 0.00, 0
87, -6444.79, 6320.98, -6593.45, -6464.37, -92555.09, -187500.02, -40032.35, 138685.86, 0.00, 0.00, 0.00, 0.00, 0.00, 0.00, 0.00, 0.00, 0
88, -6439.47, 6312.53, -6588.09, -6458.92, -92549.38, -187500.02, -40063.20, 138667.31, 0.00, 0.00, 0.00, 0.00, 0.00, 0.00, 0.00, 0.00, 0
89, -6437.10, 6310.59, -6585.78, -6456.73, -92547.38, -187500.02, -40058.50, 138667.92, 0.00, 0.00, 0.00, 0.00, 0.00, 0.00, 0.00, 0.00, 0
90, -6440.68, 6317.34, -6589.38, -6460.41, -92551.66, -187500.02, -40027.46, 138686.83, 0.00, 0.00, 0.00, 0.00, 0.00, 0.00, 0.00, 0.00, 0
91, -6441.91, 6318.59, -6590.72, -6461.69, -92553.23, -187500.02, -40028.66, 138688.28, 0.00, 0.00, 0.00, 0.00, 0.00, 0.00, 0.00, 0.00, 0
92, -6440.23, 6313.79, -6588.98, -6459.83, -92551.24, -187500.02, -40058.82, 138667.72, 0.00, 0.00, 0.00, 0.00, 0.00, 0.00, 0.00, 0.00, 0
93, -6437.77, 6310.81, -6586.41, -6457.44, -92548.80, -187500.02, -40060.09, 138665.88, 0.00, 0.00, 0.00, 0.00, 0.00, 0.00, 0.00, 0.00, 0
94, -6439.18, 6315.28, -6587.86, -6459.07, -92550.86, -187500.02, -40030.99, 138683.52, 0.00, 0.00, 0.00, 0.00, 0.00, 0.00, 0.00, 0.00, 0
95, -6440.12, 6316.96, -6588.65, -6459.79, -92552.09, -187500.02, -40026.45, 138691.47, 0.00, 0.00, 0.00, 0.00, 0.00, 0.00, 0.00, 0.00, 0
96, -6440.34, 6314.30, -6588.87, -6460.03, -92552.20, -187500.02, -40057.92, 138671.64, 0.00, 0.00, 0.00, 0.00, 0.00, 0.00, 0.00, 0.00, 0
97, -6441.15, 6313.99, -6589.74, -6461.02, -92553.07, -187500.02, -40069.14, 138663.38, 0.00, 0.00, 0.00, 0.00, 0.00, 0.00, 0.00, 0.00, 0
98, -6441.17, 6316.83, -6589.88, -6461.13, -92553.79, -187500.02, -40040.24, 138679.22, 0.00, 0.00, 0.00, 0.00, 0.00, 0.00, 0.00, 0.00, 0
99, -6442.87, 6320.09, -6591.42, -6462.60, -92555.84, -187500.02, -40026.30, 138692.06, 0.00, 0.00, 0.00, 0.00, 0.00, 0.00, 0.00, 0.00, 0
100, -6443.09, 6317.72, -6591.69, -6462.76, -92555.89, -187500.02, -40053.74, 138675.89, 0.00, 0.00, 0.00, 0.00, 0.00, 0.00, 0.00, 0.00, 0
101, -6441.50, 6314.17, -6590.17, -6461.26, -92554.30, -187500.02, -40072.52, 138663.13, 0.00, 0.00, 0.00, 0.00, 0.00, 0.00, 0.00, 0.00, 0
102, -6440.23, 6315.22, -6588.91, -6460.15, -92553.52, -187500.02, -40049.05, 138679.83, 0.00, 0.00, 0.00, 0.00, 0.00, 0.00, 0.00, 0.00, 0
103, -6442.38, 6319.64, -6590.95, -6462.20, -92556.23, -187500.02, -40028.31, 138695.50, 0.00, 0.00, 0.00, 0.00, 0.00, 0.00, 0.00, 0.00, 0
104, -6439.05, 6314.35, -6587.66, -6458.92, -92552.80, -187500.02, -40049.72, 138685.84, 0.00, 0.00, 0.00, 0.00, 0.00, 0.00, 0.00, 0.00, 0
105, -6437.21, 6310.03, -6585.94, -6457.11, -92550.88, -187500.02, -40074.53, 138671.69, 0.00, 0.00, 0.00, 0.00, 0.00, 0.00, 0.00, 0.00, 0
106, -6438.13, 6312.62, -6586.95, -6458.20, -92552.36, -187500.02, -40057.30, 138676.83, 0.00, 0.00, 0.00, 0.00, 0.00, 0.00, 0.00, 0.00, 0
107, -6440.59, 6317.79, -6589.36, -6460.59, -92555.38, -187500.02, -40031.95, 138697.84, 0.00, 0.00, 0.00, 0.00, 0.00, 0.00, 0.00, 0.00, 0
108, -6441.01, 6316.76, -6589.65, -6460.82, -92555.80, -187500.02, -40046.48, 138689.27, 0.00, 0.00, 0.00, 0.00, 0.00, 0.00, 0.00, 0.00, 0
109, -6436.94, 6309.88, -6585.63, -6456.77, -92551.55, -187500.02, -40075.65, 138671.58, 0.00, 0.00, 0.00, 0.00, 0.00, 0.00, 0.00, 0.00, 0
110, -6436.99, 6310.77, -6585.72, -6456.93, -92551.82, -187500.02, -40064.79, 138672.16, 0.00, 0.00, 0.00, 0.00, 0.00, 0.00, 0.00, 0.00, 0
111, -6436.77, 6313.47, -6585.52, -6456.75, -92552.29, -187500.02, -40035.23, 138691.55, 0.00, 0.00, 0.00, 0.00, 0.00, 0.00, 0.00, 0.00, 0
112, -6438.46, 6314.77, -6587.22, -6458.33, -92554.19, -187500.02, -40041.90, 138687.19, 0.00, 0.00, 0.00, 0.00, 0.00, 0.00, 0.00, 0.00, 0
113, -6436.83, 6310.03, -6585.54, -6456.68, -92552.27, -187500.02, -40072.03, 138664.70, 0.00, 0.00, 0.00, 0.00, 0.00, 0.00, 0.00, 0.00, 0
114, -6435.45, 6308.73, -6584.11, -6455.43, -92551.06, -187500.02, -40070.02, 138664.73, 0.00, 0.00, 0.00, 0.00, 0.00, 0.00, 0.00, 0.00, 0
115, -6436.99, 6313.38, -6585.78, -6457.13, -92553.25, -187500.02, -40040.27, 138685.66, 0.00, 0.00, 0.00, 0.00, 0.00, 0.00, 0.00, 0.00, 0
116, -6439.16, 6315.89, -6587.89, -6459.18, -92555.80, -187500.02, -40040.71, 138689.80, 0.00, 0.00, 0.00, 0.00, 0.00, 0.00, 0.00, 0.00, 0
117, -6436.41, 6309.96, -6584.98, -6456.28, -92552.67, -187500.02, -40072.41, 138670.33, 0.00, 0.00, 0.00, 0.00, 0.00, 0.00, 0.00, 0.00, 0
118, -6432.92, 6305.76, -6581.52, -6452.88, -92549.25, -187500.02, -40078.78, 138666.47, 0.00, 0.00, 0.00, 0.00, 0.00, 0.00, 0.00, 0.00, 0
119, -6435.31, 6311.13, -6583.93, -6455.38, -92552.40, -187500.02, -40048.82, 138681.30, 0.00, 0.00, 0.00, 0.00, 0.00, 0.00, 0.00, 0.00, 0
120, -6432.59, 6309.61, -6581.07, -6452.57, -92550.13, -187500.02, -40040.04, 138690.38, 0.00, 0.00, 0.00, 0.00, 0.00, 0.00, 0.00, 0.00, 0
121, -6431.24, 6305.43, -6579.82, -6451.25, -92548.53, -187500.02, -40071.34, 138676.23, 0.00, 0.00, 0.00, 0.00, 0.00, 0.00, 0.00, 0.00, 0
122, -6430.93, 6303.71, -6579.57, -6450.98, -92548.22, -187500.02, -40085.53, 138664.73, 0.00, 0.00, 0.00, 0.00, 0.00, 0.00, 0.00, 0.00, 0
123, -6429.64, 6305.07, -6578.39, -6449.84, -92547.55, -187500.02, -40058.86, 138681.75, 0.00, 0.00, 0.00, 0.00, 0.00, 0.00, 0.00, 0.00, 0
124, -6433.93, 6311.08, -6582.50, -6453.93, -92552.24, -187500.02, -40041.92, 138695.44, 0.00, 0.00, 0.00, 0.00, 0.00, 0.00, 0.00, 0.00, 0
125, -6433.75, 6308.58, -6582.39, -6453.78, -92551.91, -187500.02, -40068.16, 138683.14, 0.00, 0.00, 0.00, 0.00, 0.00, 0.00, 0.00, 0.00, 0
126, -6431.54, 6304.26, -6580.26, -6451.63, -92549.56, -187500.02, -40090.45, 138673.92, 0.00, 0.00, 0.00, 0.00, 0.00, 0.00, 0.00, 0.00, 0
127, -6430.60, 6305.52, -6579.39, -6450.94, -92549.32, -187500.02, -40068.61, 138679.63, 0.00, 0.00, 0.00, 0.00, 0.00, 0.00, 0.00, 0.00, 0
128, -6434.75, 6312.02, -6583.50, -6455.03, -92554.01, -187500.02, -40045.34, 138698.11, 0.00, 0.00, 0.00, 0.00, 0.00, 0.00, 0.00, 0.00, 0
129, -6436.72, 6312.15, -6585.49, -6456.77, -92555.82, -187500.02, -40064.09, 138684.86, 0.00, 0.00, 0.00, 0.00, 0.00, 0.00, 0.00, 0.00, 0
130, -6432.59, 6305.34, -6581.18, -6452.61, -92551.55, -187500.02, -40089.33, 138667.98, 0.00, 0.00, 0.00, 0.00, 0.00, 0.00, 0.00, 0.00, 0
131, -6433.26, 6307.55, -6582.07, -6453.64, -92552.76, -187500.02, -40074.06, 138667.95, 0.00, 0.00, 0.00, 0.00, 0.00, 0.00, 0.00, 0.00, 0
132, -6434.17, 6311.31, -6582.97, -6454.54, -92554.28, -187500.02, -40046.99, 138690.36, 0.00, 0.00, 0.00, 0.00, 0.00, 0.00, 0.00, 0.00, 0
133, -6435.80, 6311.89, -6584.58, -6456.06, -92556.05, -187500.02, -40059.00, 138683.66, 0.00, 0.00, 0.00, 0.00, 0.00, 0.00, 0.00, 0.00, 0
134, -6434.58, 6307.68, -6583.42, -6454.80, -92554.59, -187500.02, -40088.41, 138663.16, 0.00, 0.00, 0.00, 0.00, 0.00, 0.00, 0.00, 0.00, 0
135, -6433.64, 6307.39, -6582.52, -6454.07, -92553.90, -187500.02, -40080.88, 138662.94, 0.00, 0.00, 0.00, 0.00, 0.00, 0.00, 0.00, 0.00, 0
136, -6435.60, 6312.56, -6584.53, -6456.12, -92556.60, -187500.02, -40052.27, 138688.09, 0.00, 0.00, 0.00, 0.00, 0.00, 0.00, 0.00, 0.00, 0
137, -6435.16, 6311.80, -6584.09, -6455.50, -92556.31, -187500.02, -40058.46, 138687.63, 0.00, 0.00, 0.00, 0.00, 0.00, 0.00, 0.00, 0.00, 0
138, -6431.24, 6304.82, -6580.15, -6451.56, -92552.22, -187500.02, -40090.56, 138669.08, 0.00, 0.00, 0.00, 0.00, 0.00, 0.00, 0.00, 0.00, 0
139, -6427.96, 6301.27, -6576.84, -6448.39, -92549.12, -187500.02, -40090.24, 138664.05, 0.00, 0.00, 0.00, 0.00, 0.00, 0.00, 0.00, 0.00, 0
140, -6428.45, 6304.85, -6577.29, -6448.84, -92550.21, -187500.02, -40060.38, 138678.59, 0.00, 0.00, 0.00, 0.00, 0.00, 0.00, 0.00, 0.00, 0
141, -6430.24, 6307.24, -6579.01, -6450.40, -92552.22, -187500.02, -40056.09, 138684.05, 0.00, 0.00, 0.00, 0.00, 0.00, 0.00, 0.00, 0.00, 0
142, -6427.67, 6301.60, -6576.42, -6447.72, -92549.43, -187500.02, -40086.29, 138666.66, 0.00, 0.00, 0.00, 0.00, 0.00, 0.00, 0.00, 0.00, 0
143, -6421.52, 6294.45, -6570.36, -6441.79, -92543.46, -187500.02, -40095.63, 138660.50, 0.00, 0.00, 0.00, 0.00, 0.00, 0.00, 0.00, 0.00, 0
144, -6421.57, 6297.25, -6570.32, -6441.93, -92543.98, -187500.02, -40066.73, 138679.84, 0.00, 0.00, 0.00, 0.00, 0.00, 0.00, 0.00, 0.00, 0
145, -6424.09, 6301.20, -6572.82, -6444.39, -92546.97, -187500.02, -40055.04, 138692.50, 0.00, 0.00, 0.00, 0.00, 0.00, 0.00, 0.00, 0.00, 0
146, -6421.75, 6296.24, -6570.63, -6442.02, -92544.47, -187500.02, -40084.70, 138677.34, 0.00, 0.00, 0.00, 0.00, 0.00, 0.00, 0.00, 0.00, 0
147, -6421.21, 6294.01, -6570.09, -6441.59, -92543.98, -187500.02, -40100.01, 138666.08, 0.00, 0.00, 0.00, 0.00, 0.00, 0.00, 0.00, 0.00, 0
148, -6423.47, 6298.68, -6572.33, -6444.01, -92546.79, -187500.02, -40073.50, 138679.92, 0.00, 0.00, 0.00, 0.00, 0.00, 0.00, 0.00, 0.00, 0
149, -6426.71, 6304.06, -6575.59, -6447.14, -92550.66, -187500.02, -40055.02, 138695.94, 0.00, 0.00, 0.00, 0.00, 0.00, 0.00, 0.00, 0.00, 0
150, -6423.13, 6298.21, -6571.88, -6443.34, -92546.86, -187500.02, -40076.72, 138682.53, 0.00, 0.00, 0.00, 0.00, 0.00, 0.00, 0.00, 0.00, 0
151, -6420.02, 6292.78, -6568.82, -6440.32, -92543.69, -187500.02, -40098.38, 138666.81, 0.00, 0.00, 0.00, 0.00, 0.00, 0.00, 0.00, 0.00, 0
152, -6421.70, 6296.42, -6570.54, -6442.24, -92545.96, -187500.02, -40078.62, 138675.47, 0.00, 0.00, 0.00, 0.00, 0.00, 0.00, 0.00, 0.00, 0
153, -6424.27, 6301.54, -6573.00, -6444.66, -92549.01, -187500.02, -40053.21, 138694.63, 0.00, 0.00, 0.00, 0.00, 0.00, 0.00, 0.00, 0.00, 0
154, -6422.06, 6297.85, -6570.79, -6442.38, -92546.77, -187500.02, -40070.33, 138688.92, 0.00, 0.00, 0.00, 0.00, 0.00, 0.00, 0.00, 0.00, 0
155, -6419.06, 6292.02, -6567.75, -6439.36, -92543.62, -187500.02, -40099.21, 138674.38, 0.00, 0.00, 0.00, 0.00, 0.00, 0.00, 0.00, 0.00, 0
156, -6418.04, 6292.15, -6566.72, -6438.35, -92542.95, -187500.02, -40086.87, 138679.63, 0.00, 0.00, 0.00, 0.00, 0.00, 0.00, 0.00, 0.00, 0
157, -6419.60, 6296.69, -6568.28, -6439.96, -92545.14, -187500.02, -40056.83, 138697.38, 0.00, 0.00, 0.00, 0.00, 0.00, 0.00, 0.00, 0.00, 0
158, -6418.73, 6294.99, -6567.34, -6439.00, -92544.35, -187500.02, -40067.11, 138694.22, 0.00, 0.00, 0.00, 0.00, 0.00, 0.00, 0.00, 0.00, 0
159, -6415.64, 6288.84, -6564.28, -6435.94, -92541.02, -187500.02, -40098.36, 138675.78, 0.00, 0.00, 0.00, 0.00, 0.00, 0.00, 0.00, 0.00, 0
160, -6412.38, 6285.96, -6561.15, -6432.88, -92538.07, -187500.02, -40092.93, 138676.66, 0.00, 0.00, 0.00, 0.00, 0.00, 0.00, 0.00, 0.00, 0
161, -6416.09, 6292.80, -6564.98, -6436.79, -92542.52, -187500.02, -40062.19, 138694.38, 0.00, 0.00, 0.00, 0.00, 0.00, 0.00, 0.00, 0.00, 0
162, -6416.94, 6293.69, -6565.74, -6437.44, -92543.55, -187500.02, -40064.72, 138695.78, 0.00, 0.00, 0.00, 0.00, 0.00, 0.00, 0.00, 0.00, 0
163, -6412.63, 6286.27, -6561.35, -6432.99, -92538.95, -187500.02, -40097.62, 138673.41, 0.00, 0.00, 0.00, 0.00, 0.00, 0.00, 0.00, 0.00, 0
164, -6411.66, 6284.86, -6560.50, -6432.25, -92538.16, -187500.02, -40101.29, 138671.38, 0.00, 0.00, 0.00, 0.00, 0.00, 0.00, 0.00, 0.00, 0
165, -6416.63, 6292.78, -6565.36, -6437.10, -92543.75, -187500.02, -40070.78, 138687.92, 0.00, 0.00, 0.00, 0.00, 0.00, 0.00, 0.00, 0.00, 0
166, -6421.30, 6298.41, -6569.83, -6441.59, -92548.78, -187500.02, -40064.29, 138694.20, 0.00, 0.00, 0.00, 0.00, 0.00, 0.00, 0.00, 0.00, 0
167, -6419.51, 6293.78, -6568.31, -6440.03, -92546.88, -187500.02, -40094.60, 138680.97, 0.00, 0.00, 0.00, 0.00, 0.00, 0.00, 0.00, 0.00, 0
168, -6417.45, 6290.41, -6566.20, -6437.95, -92544.76, -187500.02, -40106.11, 138673.44, 0.00, 0.00, 0.00, 0.00, 0.00, 0.00, 0.00, 0.00, 0
169, -6418.30, 6294.01, -6567.12, -6438.96, -92546.27, -187500.02, -40079.07, 138686.33, 0.00, 0.00, 0.00, 0.00, 0.00, 0.00, 0.00, 0.00, 0
170, -6421.52, 6298.86, -6570.12, -6442.02, -92549.97, -187500.02, -40064.96, 138698.78, 0.00, 0.00, 0.00, 0.00, 0.00, 0.00, 0.00, 0.00, 0
171, -6417.01, 6291.90, -6565.74, -6437.44, -92545.30, -187500.02, -40092.03, 138685.55, 0.00, 0.00, 0.00, 0.00, 0.00, 0.00, 0.00, 0.00, 0
172, -6413.18, 6286.23, -6562.09, -6433.77, -92541.45, -187500.02, -40110.07, 138674.11, 0.00, 0.00, 0.00, 0.00, 0.00, 0.00, 0.00, 0.00, 0
173, -6416.65, 6291.97, -6565.53, -6437.24, -92545.47, -187500.02, -40085.89, 138684.50, 0.00, 0.00, 0.00, 0.00, 0.00, 0.00, 0.00, 0.00, 0
174, -6419.15, 6296.69, -6567.81, -6439.47, -92548.60, -187500.02, -40064.90, 138699.14, 0.00, 0.00, 0.00, 0.00, 0.00, 0.00, 0.00, 0.00, 0
175, -6419.35, 6294.92, -6568.19, -6439.83, -92548.71, -187500.02, -40086.69, 138694.83, 0.00, 0.00, 0.00, 0.00, 0.00, 0.00, 0.00, 0.00, 0
176, -6417.03, 6289.98, -6565.87, -6437.57, -92546.21, -187500.02, -40112.24, 138680.34, 0.00, 0.00, 0.00, 0.00, 0.00, 0.00, 0.00, 0.00, 0
177, -6415.64, 6290.07, -6564.51, -6436.32, -92545.20, -187500.02, -40095.50, 138687.11, 0.00, 0.00, 0.00, 0.00, 0.00, 0.00, 0.00, 0.00, 0
178, -6419.67, 6296.89, -6568.40, -6440.10, -92549.79, -187500.02, -40069.99, 138703.67, 0.00, 0.00, 0.00, 0.00, 0.00, 0.00, 0.00, 0.00, 0
179, -6420.67, 6296.71, -6569.45, -6441.10, -92550.81, -187500.02, -40084.88, 138703.55, 0.00, 0.00, 0.00, 0.00, 0.00, 0.00, 0.00, 0.00, 0
180, -6415.62, 6288.77, -6564.46, -6436.21, -92545.63, -187500.02, -40113.89, 138689.13, 0.00, 0.00, 0.00, 0.00, 0.00, 0.00, 0.00, 0.00, 0
181, -6412.51, 6286.56, -6561.38, -6433.21, -92542.88, -187500.02, -40102.70, 138688.59, 0.00, 0.00, 0.00, 0.00, 0.00, 0.00, 0.00, 0.00, 0
182, -6415.24, 6292.40, -6563.99, -6435.78, -92546.37, -187500.02, -40072.47, 138706.19, 0.00, 0.00, 0.00, 0.00, 0.00, 0.00, 0.00, 0.00, 0
183, -6419.00, 6295.68, -6567.66, -6439.43, -92550.19, -187500.02, -40080.39, 138708.70, 0.00, 0.00, 0.00, 0.00, 0.00, 0.00, 0.00, 0.00, 0
184, -6416.31, 6289.85, -6565.24, -6436.88, -92547.26, -187500.02, -40112.91, 138692.08, 0.00, 0.00, 0.00, 0.00, 0.00, 0.00, 0.00, 0.00, 0
185, -6412.45, 6286.14, -6561.47, -6433.23, -92543.75, -187500.02, -40112.08, 138692.66, 0.00, 0.00, 0.00, 0.00, 0.00, 0.00, 0.00, 0.00, 0
186, -6413.25, 6290.18, -6562.18, -6434.08, -92545.27, -187500.02, -40083.36, 138706.73, 0.00, 0.00, 0.00, 0.00, 0.00, 0.00, 0.00, 0.00, 0
187, -6415.33, 6292.60, -6564.13, -6435.87, -92547.53, -187500.02, -40082.51, 138711.64, 0.00, 0.00, 0.00, 0.00, 0.00, 0.00, 0.00, 0.00, 0
188, -6413.03, 6287.17, -6561.89, -6433.61, -92544.87, -187500.02, -40112.30, 138699.13, 0.00, 0.00, 0.00, 0.00, 0.00, 0.00, 0.00, 0.00, 0
189, -6411.20, 6284.57, -6560.10, -6431.89, -92543.23, -187500.02, -40118.27, 138692.92, 0.00, 0.00, 0.00, 0.00, 0.00, 0.00, 0.00, 0.00, 0
190, -6413.88, 6290.32, -6562.78, -6434.69, -92546.68, -187500.02, -40090.33, 138708.53, 0.00, 0.00, 0.00, 0.00, 0.00, 0.00, 0.00, 0.00, 0
191, -6417.05, 6294.70, -6565.87, -6437.59, -92550.21, -187500.02, -40081.86, 138717.22, 0.00, 0.00, 0.00, 0.00, 0.00, 0.00, 0.00, 0.00, 0
192, -6415.42, 6290.14, -6564.39, -6436.01, -92548.31, -187500.02, -40111.59, 138705.91, 0.00, 0.00, 0.00, 0.00, 0.00, 0.00, 0.00, 0.00, 0
193, -6412.31, 6285.58, -6561.40, -6433.10, -92545.31, -187500.02, -40126.05, 138700.70, 0.00, 0.00, 0.00, 0.00, 0.00, 0.00, 0.00, 0.00, 0
194, -6413.52, 6289.40, -6562.56, -6434.33, -92547.15, -187500.02, -40099.16, 138708.42, 0.00, 0.00, 0.00, 0.00, 0.00, 0.00, 0.00, 0.00, 0
195, -6413.65, 6291.41, -6562.38, -6434.20, -92547.75, -187500.02, -40080.45, 138717.47, 0.00, 0.00, 0.00, 0.00, 0.00, 0.00, 0.00, 0.00, 0
196, -6409.34, 6284.80, -6558.31, -6430.02, -92543.30, -187500.02, -40105.67, 138710.56, 0.00, 0.00, 0.00, 0.00, 0.00, 0.00, 0.00, 0.00, 0
197, -6409.85, 6283.03, -6558.96, -6430.64, -92543.86, -187500.02, -40127.13, 138700.08, 0.00, 0.00, 0.00, 0.00, 0.00, 0.00, 0.00, 0.00, 0
198, -6413.74, 6288.86, -6562.83, -6434.55, -92548.20, -187500.02, -40105.33, 138706.11, 0.00, 0.00, 0.00, 0.00, 0.00, 0.00, 0.00, 0.00, 0
199, -6415.91, 6293.51, -6564.66, -6436.45, -92550.84, -187500.02, -40082.09, 138723.03, 0.00, 0.00, 0.00, 0.00, 0.00, 0.00, 0.00, 0.00, 0
200, -6416.52, 6292.49, -6565.40, -6437.17, -92551.41, -187500.02, -40102.52, 138715.23, 0.00, 0.00, 0.00, 0.00, 0.00, 0.00, 0.00, 0.00, 0
201, -6413.90, 6287.21, -6562.87, -6434.69, -92548.67, -187500.02, -40129.34, 138703.13, 0.00, 0.00, 0.00, 0.00, 0.00, 0.00, 0.00, 0.00, 0
202, -6413.68, 6288.40, -6562.63, -6434.60, -92549.01, -187500.02, -40113.20, 138703.59, 0.00, 0.00, 0.00, 0.00, 0.00, 0.00, 0.00, 0.00, 0
203, -6413.48, 6290.99, -6562.23, -6434.22, -92549.38, -187500.02, -40086.22, 138723.06, 0.00, 0.00, 0.00, 0.00, 0.00, 0.00, 0.00, 0.00, 0
204, -6412.92, 6289.53, -6561.71, -6433.70, -92549.01, -187500.02, -40097.93, 138717.72, 0.00, 0.00, 0.00, 0.00, 0.00, 0.00, 0.00, 0.00, 0
205, -6412.25, 6285.91, -6561.18, -6433.01, -92548.11, -187500.02, -40127.17, 138701.91, 0.00, 0.00, 0.00, 0.00, 0.00, 0.00, 0.00, 0.00, 0
206, -6411.37, 6285.44, -6560.28, -6432.30, -92547.44, -187500.02, -40121.69, 138699.45, 0.00, 0.00, 0.00, 0.00, 0.00, 0.00, 0.00, 0.00, 0
207, -6412.00, 6289.13, -6560.71, -6432.97, -92548.78, -187500.02, -40092.12, 138714.56, 0.00, 0.00, 0.00, 0.00, 0.00, 0.00, 0.00, 0.00, 0
208, -6413.43, 6290.59, -6562.11, -6434.26, -92550.34, -187500.02, -40094.25, 138713.72, 0.00, 0.00, 0.00, 0.00, 0.00, 0.00, 0.00, 0.00, 0
209, -6409.85, 6283.92, -6558.72, -6430.80, -92546.45, -187500.02, -40126.45, 138696.95, 0.00, 0.00, 0.00, 0.00, 0.00, 0.00, 0.00, 0.00, 0
210, -6409.16, 6282.90, -6558.05, -6430.17, -92546.05, -187500.02, -40128.91, 138692.64, 0.00, 0.00, 0.00, 0.00, 0.00, 0.00, 0.00, 0.00, 0
211, -6410.73, 6287.41, -6559.41, -6431.69, -92548.27, -187500.02, -40098.49, 138705.44, 0.00, 0.00, 0.00, 0.00, 0.00, 0.00, 0.00, 0.00, 0
212, -6413.70, 6291.14, -6562.27, -6434.53, -92551.58, -187500.02, -40094.29, 138713.02, 0.00, 0.00, 0.00, 0.00, 0.00, 0.00, 0.00, 0.00, 0
213, -6413.03, 6287.50, -6561.82, -6433.88, -92550.73, -187500.02, -40124.22, 138695.03, 0.00, 0.00, 0.00, 0.00, 0.00, 0.00, 0.00, 0.00, 0
214, -6410.57, 6283.99, -6559.50, -6431.54, -92548.31, -187500.02, -40133.07, 138685.84, 0.00, 0.00, 0.00, 0.00, 0.00, 0.00, 0.00, 0.00, 0
215, -6410.88, 6287.12, -6559.81, -6432.00, -92549.32, -187500.02, -40072.96, 138695.77, 0.00, 0.00, 0.00, 0.00, 0.00, 0.00, 0.00, 0.00, 0
216, -6413.30, 6291.05, -6562.52, -6434.64, -92552.09, -187500.02, -39956.43, 138709.02, 0.00, 0.00, 0.00, 0.00, 0.00, 0.00, 0.00, 0.00, 0
217, -6414.64, 6289.80, -6563.72, -6435.80, -92553.25, -187500.02, -39936.91, 138690.53, 0.00, 0.00, 0.00, 0.00, 0.00, 0.00, 0.00, 0.00, 0
218, -6413.14, 6286.54, -6562.18, -6434.40, -92551.69, -187500.02, -39922.43, 138681.08, 0.00, 0.00, 0.00, 0.00, 0.00, 0.00, 0.00, 0.00, 0
219, -6412.54, 6288.35, -6561.71, -6433.97, -92551.69, -187500.02, -39868.47, 138683.52, 0.00, 0.00, 0.00, 0.00, 0.00, 0.00, 0.00, 0.00, 0
220, -6412.02, 6289.89, -6561.27, -6433.39, -92551.66, -187500.02, -39822.63, 138696.50, 0.00, 0.00, 0.00, 0.00, 0.00, 0.00, 0.00, 0.00, 0
221, -6411.64, 6287.52, -6560.84, -6432.92, -92551.24, -187500.02, -39820.61, 138683.38, 0.00, 0.00, 0.00, 0.00, 0.00, 0.00, 0.00, 0.00, 0
222, -6407.95, 6281.40, -6557.06, -6429.26, -92547.33, -187500.02, -39820.01, 138670.08, 0.00, 0.00, 0.00, 0.00, 0.00, 0.00, 0.00, 0.00, 0
223, -6405.07, 6280.24, -6554.25, -6426.57, -92544.96, -187500.02, -39776.18, 138671.17, 0.00, 0.00, 0.00, 0.00, 0.00, 0.00, 0.00, 0.00, 0
224, -6406.75, 6284.66, -6556.01, -6428.32, -92547.33, -187500.02, -39727.79, 138684.19, 0.00, 0.00, 0.00, 0.00, 0.00, 0.00, 0.00, 0.00, 0
225, -6408.89, 6285.35, -6558.05, -6430.31, -92549.38, -187500.02, -39763.73, 138675.72, 0.00, 0.00, 0.00, 0.00, 0.00, 0.00, 0.00, 0.00, 0
226, -6406.10, 6279.77, -6555.41, -6427.65, -92546.41, -187500.02, -39870.68, 138657.44, 0.00, 0.00, 0.00, 0.00, 0.00, 0.00, 0.00, 0.00, 0
227, -6400.73, 6275.54, -6550.11, -6422.55, -92541.49, -187500.02, -39878.77, 138654.44, 0.00, 0.00, 0.00, 0.00, 0.00, 0.00, 0.00, 0.00, 0
228, -6403.22, 6280.91, -6552.50, -6425.05, -92544.49, -187500.02, -39859.51, 138666.89, 0.00, 0.00, 0.00, 0.00, 0.00, 0.00, 0.00, 0.00, 0
229, -6406.10, 6283.08, -6555.30, -6427.71, -92547.38, -187500.02, -39876.20, 138662.73, 0.00, 0.00, 0.00, 0.00, 0.00, 0.00, 0.00, 0.00, 0
230, -6406.03, 6279.83, -6555.05, -6427.44, -92546.97, -187500.02, -39913.64, 138645.50, 0.00, 0.00, 0.00, 0.00, 0.00, 0.00, 0.00, 0.00, 0
231, -6404.71, 6278.81, -6553.84, -6426.39, -92545.98, -187500.02, -39917.42, 138641.11, 0.00, 0.00, 0.00, 0.00, 0.00, 0.00, 0.00, 0.00, 0
232, -6407.91, 6285.22, -6557.17, -6429.86, -92549.90, -187500.02, -39894.29, 138654.19, 0.00, 0.00, 0.00, 0.00, 0.00, 0.00, 0.00, 0.00, 0
233, -6411.64, 6289.20, -6560.88, -6433.48, -92553.90, -187500.02, -39900.81, 138655.94, 0.00, 0.00, 0.00, 0.00, 0.00, 0.00, 0.00, 0.00, 0
234, -6410.19, 6284.71, -6559.41, -6431.80, -92552.13, -187500.02, -39937.78, 138639.19, 0.00, 0.00, 0.00, 0.00, 0.00, 0.00, 0.00, 0.00, 0
235, -6408.67, 6282.54, -6557.82, -6430.46, -92550.68, -187500.02, -39947.50, 138631.44, 0.00, 0.00, 0.00, 0.00, 0.00, 0.00, 0.00, 0.00, 0
236, -6408.74, 6285.73, -6558.02, -6430.75, -92551.58, -187500.02, -39921.91, 138642.19, 0.00, 0.00, 0.00, 0.00, 0.00, 0.00, 0.00, 0.00, 0
237, -6408.07, 6286.05, -6557.35, -6429.90, -92551.20, -187500.02, -39918.20, 138651.02, 0.00, 0.00, 0.00, 0.00, 0.00, 0.00, 0.00, 0.00, 0
238, -6406.17, 6281.24, -6555.27, -6427.94, -92549.01, -187500.02, -39953.45, 138632.91, 0.00, 0.00, 0.00, 0.00, 0.00, 0.00, 0.00, 0.00, 0
239, -6403.01, 6276.59, -6552.01, -6424.76, -92545.77, -187500.02, -39971.55, 138625.20, 0.00, 0.00, 0.00, 0.00, 0.00, 0.00, 0.00, 0.00, 0
240, -6403.08, 6279.36, -6552.26, -6425.17, -92546.57, -187500.02, -39946.72, 138634.30, 0.00, 0.00, 0.00, 0.00, 0.00, 0.00, 0.00, 0.00, 0
241, -6404.09, 6282.18, -6553.24, -6426.01, -92547.91, -187500.02, -39935.93, 138648.52, 0.00, 0.00, 0.00, 0.00, 0.00, 0.00, 0.00, 0.00, 0
242, -6405.85, 6281.58, -6554.94, -6427.53, -92549.43, -187500.02, -39966.68, 138629.52, 0.00, 0.00, 0.00, 0.00, 0.00, 0.00, 0.00, 0.00, 0
243, -6403.24, 6276.84, -6552.32, -6424.92, -92546.70, -187500.02, -39989.04, 138620.06, 0.00, 0.00, 0.00, 0.00, 0.00, 0.00, 0.00, 0.00, 0
244, -6398.72, 6274.51, -6547.88, -6420.52, -92542.68, -187500.02, -39969.01, 138628.27, 0.00, 0.00, 0.00, 0.00, 0.00, 0.00, 0.00, 0.00, 0
245, -6402.46, 6280.59, -6551.59, -6424.25, -92546.95, -187500.02, -39949.74, 138647.75, 0.00, 0.00, 0.00, 0.00, 0.00, 0.00, 0.00, 0.00, 0
246, -6403.04, 6279.36, -6552.21, -6424.76, -92547.48, -187500.02, -39971.76, 138634.88, 0.00, 0.00, 0.00, 0.00, 0.00, 0.00, 0.00, 0.00, 0
247, -6400.56, 6274.34, -6549.69, -6422.24, -92544.84, -187500.02, -40000.23, 138617.05, 0.00, 0.00, 0.00, 0.00, 0.00, 0.00, 0.00, 0.00, 0
248, -6401.54, 6276.79, -6550.76, -6423.49, -92546.34, -187500.02, -39987.54, 138625.25, 0.00, 0.00, 0.00, 0.00, 0.00, 0.00, 0.00, 0.00, 0
249, -6405.36, 6283.34, -6554.51, -6427.31, -92550.77, -187500.02, -39963.15, 138645.72, 0.00, 0.00, 0.00, 0.00, 0.00, 0.00, 0.00, 0.00, 0
250, -6405.56, 6282.36, -6554.54, -6427.27, -92551.02, -187500.02, -39979.83, 138639.50, 0.00, 0.00, 0.00, 0.00, 0.00, 0.00, 0.00, 0.00, 0
251, -6403.10, 6277.00, -6552.15, -6424.76, -92548.27, -187500.02, -40012.15, 138624.59, 0.00, 0.00, 0.00, 0.00, 0.00, 0.00, 0.00, 0.00, 0
252, -6401.52, 6276.24, -6550.67, -6423.40, -92546.97, -187500.02, -40006.36, 138625.14, 0.00, 0.00, 0.00, 0.00, 0.00, 0.00, 0.00, 0.00, 0
253, -6405.43, 6283.14, -6554.51, -6427.29, -92551.44, -187500.02, -39979.60, 138647.78, 0.00, 0.00, 0.00, 0.00, 0.00, 0.00, 0.00, 0.00, 0
254, -6406.46, 6283.77, -6555.45, -6428.16, -92552.54, -187500.02, -39987.38, 138647.02, 0.00, 0.00, 0.00, 0.00, 0.00, 0.00, 0.00, 0.00, 0
255, -6402.19, 6276.55, -6551.25, -6423.91, -92548.18, -187500.02, -40020.55, 138626.09, 0.00, 0.00, 0.00, 0.00, 0.00, 0.00, 0.00, 0.00, 0
0, -6397.67, 6271.99, -6546.83, -6419.58, -92543.91, -187500.02, -40022.00, 138625.64, 0.00, 0.00, 0.00, 0.00, 0.00, 0.00, 0.00, 0.00, 0
1, -6398.81, 6276.17, -6547.81, -6420.72, -92545.65, -187500.02, -39994.24, 138645.98, 0.00, 0.00, 0.00, 0.00, 0.00, 0.00, 0.00, 0.00, 0
2, -6400.80, 6278.69, -6549.69, -6422.53, -92547.88, -187500.02, -39994.40, 138652.58, 0.00, 0.00, 0.00, 0.00, 0.00, 0.00, 0.00, 0.00, 0
3, -6396.53, 6271.41, -6545.62, -6418.28, -92543.35, -187500.02, -40027.39, 138634.36, 0.00, 0.00, 0.00, 0.00, 0.00, 0.00, 0.00, 0.00, 0
4, -6393.47, 6267.45, -6542.56, -6415.26, -92540.31, -187500.02, -40037.92, 138627.77, 0.00, 0.00, 0.00, 0.00, 0.00, 0.00, 0.00, 0.00, 0
5, -6395.75, 6272.61, -6544.84, -6417.65, -92543.17, -187500.02, -40009.20, 138650.08, 0.00, 0.00, 0.00, 0.00, 0.00, 0.00, 0.00, 0.00, 0
6, -6400.51, 6278.69, -6549.42, -6422.24, -92548.38, -187500.02, -39999.61, 138659.91, 0.00, 0.00, 0.00, 0.00, 0.00, 0.00, 0.00, 0.00, 0
7, -6399.73, 6275.05, -6548.66, -6421.34, -92547.28, -187500.02, -40030.77, 138642.45, 0.00, 0.00, 0.00, 0.00, 0.00, 0.00, 0.00, 0.00, 0
8, -6396.53, 6270.20, -6545.51, -6418.24, -92544.02, -187500.02, -40048.25, 138629.50, 0.00, 0.00, 0.00, 0.00, 0.00, 0.00, 0.00, 0.00, 0
9, -6397.90, 6273.98, -6546.80, -6419.73, -92545.85, -187500.02, -40024.35, 138651.73, 0.00, 0.00, 0.00, 0.00, 0.00, 0.00, 0.00, 0.00, 0
10, -6401.41, 6279.54, -6550.27, -6423.15, -92549.95, -187500.02, -40008.14, 138666.03, 0.00, 0.00, 0.00, 0.00, 0.00, 0.00, 0.00, 0.00, 0
11, -6401.58, 6277.46, -6550.56, -6423.31, -92549.97, -187500.02, -40033.22, 138655.83, 0.00, 0.00, 0.00, 0.00, 0.00, 0.00, 0.00, 0.00, 0
12, -6397.27, 6270.96, -6546.27, -6419.06, -92545.49, -187500.02, -40055.09, 138643.47, 0.00, 0.00, 0.00, 0.00, 0.00, 0.00, 0.00, 0.00, 0
13, -6395.33, 6270.96, -6544.39, -6417.34, -92544.09, -187500.02, -40037.25, 138654.08, 0.00, 0.00, 0.00, 0.00, 0.00, 0.00, 0.00, 0.00, 0
14, -6399.84, 6277.96, -6548.77, -6421.79, -92549.12, -187500.02, -40014.41, 138672.98, 0.00, 0.00, 0.00, 0.00, 0.00, 0.00, 0.00, 0.00, 0
15, -6400.91, 6277.40, -6549.87, -6422.73, -92550.16, -187500.02, -40032.13, 138663.27, 0.00, 0.00, 0.00, 0.00, 0.00, 0.00, 0.00, 0.00, 0
16, -6397.83, 6271.63, -6546.80, -6419.64, -92546.92, -187500.02, -40060.52, 138646.06, 0.00, 0.00, 0.00, 0.00, 0.00, 0.00, 0.00, 0.00, 0
17, -6394.99, 6270.04, -6544.05, -6417.10, -92544.42, -187500.02, -40047.55, 138656.88, 0.00, 0.00, 0.00, 0.00, 0.00, 0.00, 0.00, 0.00, 0
18, -6397.09, 6274.98, -6545.98, -6419.00, -92547.13, -187500.02, -40019.93, 138678.47, 0.00, 0.00, 0.00, 0.00, 0.00, 0.00, 0.00, 0.00, 0
19, -6399.04, 6276.10, -6547.92, -6420.78, -92549.05, -187500.02, -40031.59, 138675.98, 0.00, 0.00, 0.00, 0.00, 0.00, 0.00, 0.00, 0.00, 0
20, -6396.04, 6270.00, -6544.90, -6417.79, -92545.79, -187500.02, -40063.49, 138655.63, 0.00, 0.00, 0.00, 0.00, 0.00, 0.00, 0.00, 0.00, 0
21, -6394.48, 6268.95, -6543.45, -6416.45, -92544.51, -187500.02, -40058.62, 138657.19, 0.00, 0.00, 0.00, 0.00, 0.00, 0.00, 0.00, 0.00, 0
22, -6398.19, 6275.90, -6547.21, -6420.27, -92548.96, -187500.02, -40027.50, 138676.91, 0.00, 0.00, 0.00, 0.00, 0.00, 0.00, 0.00, 0.00, 0
23, -6399.64, 6277.35, -6548.57, -6421.66, -92550.48, -187500.02, -40030.07, 138680.36, 0.00, 0.00, 0.00, 0.00, 0.00, 0.00, 0.00, 0.00, 0
24, -6397.20, 6271.77, -6546.20, -6419.04, -92547.82, -187500.02, -40063.11, 138654.30, 0.00, 0.00, 0.00, 0.00, 0.00, 0.00, 0.00, 0.00, 0
25, -6393.22, 6267.29, -6542.15, -6415.15, -92543.93, -187500.02, -40067.87, 138652.09, 0.00, 0.00, 0.00, 0.00, 0.00, 0.00, 0.00, 0.00, 0
26, -6394.21, 6271.36, -6543.12, -6416.27, -92545.54, -187500.02, -40038.61, 138678.64, 0.00, 0.00, 0.00, 0.00, 0.00, 0.00, 0.00, 0.00, 0
27, -6397.45, 6275.50, -6546.40, -6419.47, -92549.12, -187500.02, -40033.22, 138686.02, 0.00, 0.00, 0.00, 0.00, 0.00, 0.00, 0.00, 0.00, 0
28, -6395.21, 6270.25, -6544.26, -6417.10, -92546.61, -187500.02, -40064.65, 138664.50, 0.00, 0.00, 0.00, 0.00, 0.00, 0.00, 0.00, 0.00, 0
29, -6394.86, 6268.68, -6543.79, -6416.72, -92546.27, -187500.02, -40075.71, 138659.44, 0.00, 0.00, 0.00, 0.00, 0.00, 0.00, 0.00, 0.00, 0
30, -6396.89, 6273.55, -6545.86, -6419.00, -92548.87, -187500.02, -40048.04, 138670.06, 0.00, 0.00, 0.00, 0.00, 0.00, 0.00, 0.00, 0.00, 0
31, -6398.83, 6277.04, -6547.72, -6420.81, -92551.20, -187500.02, -40035.44, 138680.92, 0.00, 0.00, 0.00, 0.00, 0.00, 0.00, 0.00, 0.00, 0
32, -6396.60, 6272.26, -6545.53, -6418.55, -92548.83, -187500.02, -40062.86, 138664.83, 0.00, 0.00, 0.00, 0.00, 0.00, 0.00, 0.00, 0.00, 0
33, -6393.18, 6266.92, -6542.04, -6415.11, -92545.30, -187500.02, -40081.62, 138654.64, 0.00, 0.00, 0.00, 0.00, 0.00, 0.00, 0.00, 0.00, 0
34, -6392.46, 6268.52, -6541.44, -6414.64, -92545.20, -187500.02, -40058.59, 138662.64, 0.00, 0.00, 0.00, 0.00, 0.00, 0.00, 0.00, 0.00, 0
35, -6395.12, 6273.37, -6543.96, -6417.14, -92548.36, -187500.02, -40039.66, 138680.14, 0.00, 0.00, 0.00, 0.00, 0.00, 0.00, 0.00, 0.00, 0
36, -6391.32, 6267.54, -6540.14, -6413.27, -92544.35, -187500.02, -40062.93, 138669.13, 0.00, 0.00, 0.00, 0.00, 0.00, 0.00, 0.00, 0.00, 0
37, -6387.44, 6261.24, -6536.30, -6409.34, -92540.33, -187500.02, -40087.92, 138657.03, 0.00, 0.00, 0.00, 0.00, 0.00, 0.00, 0.00, 0.00, 0
38, -6392.62, 6268.14, -6541.62, -6414.77, -92546.14, -187500.02, -40070.98, 138662.22, 0.00, 0.00, 0.00, 0.00, 0.00, 0.00, 0.00, 0.00, 0
39, -6395.93, 6274.22, -6544.88, -6418.21, -92550.01, -187500.02, -40047.11, 138677.53, 0.00, 0.00, 0.00, 0.00, 0.00, 0.00, 0.00, 0.00, 0
40, -6396.11, 6273.08, -6545.06, -6418.30, -92550.14, -187500.02, -40063.46, 138673.70, 0.00, 0.00, 0.00, 0.00, 0.00, 0.00, 0.00, 0.00, 0
41, -6393.63, 6267.52, -6542.44, -6415.64, -92547.35, -187500.02, -40092.52, 138660.36, 0.00, 0.00, 0.00, 0.00, 0.00, 0.00, 0.00, 0.00, 0
42, -6390.59, 6265.44, -6539.49, -6412.83, -92544.69, -187500.02, -40082.33, 138662.28, 0.00, 0.00, 0.00, 0.00, 0.00, 0.00, 0.00, 0.00, 0
43, -6389.27, 6267.21, -6538.29, -6411.64, -92544.04, -187500.02, -40053.16, 138681.02, 0.00, 0.00, 0.00, 0.00, 0.00, 0.00, 0.00, 0.00, 0
44, -6389.29, 6266.78, -6538.31, -6411.55, -92544.16, -187500.02, -40060.34, 138680.33, 0.00, 0.00, 0.00, 0.00, 0.00, 0.00, 0.00, 0.00, 0
45, -6387.10, 6261.46, -6536.12, -6409.25, -92541.74, -187500.02, -40092.17, 138661.33, 0.00, 0.00, 0.00, 0.00, 0.00, 0.00, 0.00, 0.00, 0
46, -6385.96, 6260.46, -6535.00, -6408.31, -92540.82, -187500.02, -40090.22, 138656.72, 0.00, 0.00, 0.00, 0.00, 0.00, 0.00, 0.00, 0.00, 0
47, -6386.88, 6264.37, -6535.87, -6409.27, -92542.27, -187500.02, -40060.89, 138678.22, 0.00, 0.00, 0.00, 0.00, 0.00, 0.00, 0.00, 0.00, 0
48, -6389.27, 6267.05, -6538.20, -6411.46, -92544.98, -187500.02, -40060.85, 138682.27, 0.00, 0.00, 0.00, 0.00, 0.00, 0.00, 0.00, 0.00, 0
49, -6390.54, 6265.28, -6539.47, -6412.74, -92545.96, -187500.02, -40091.03, 138664.47, 0.00, 0.00, 0.00, 0.00, 0.00, 0.00, 0.00, 0.00, 0
50, -6387.30, 6261.35, -6536.28, -6409.56, -92542.74, -187500.02, -40096.59, 138662.69, 0.00, 0.00, 0.00, 0.00, 0.00, 0.00, 0.00, 0.00, 0
51, -6388.84, 6265.89, -6537.89, -6411.20, -92544.91, -187500.02, -40068.88, 138681.58, 0.00, 0.00, 0.00, 0.00, 0.00, 0.00, 0.00, 0.00, 0
52, -6388.51, 6266.65, -6537.35, -6410.64, -92544.91, -187500.02, -40062.10, 138689.38, 0.00, 0.00, 0.00, 0.00, 0.00, 0.00, 0.00, 0.00, 0
53, -6384.35, 6259.63, -6533.33, -6406.48, -92540.63, -187500.02, -40092.79, 138670.95, 0.00, 0.00, 0.00, 0.00, 0.00, 0.00, 0.00, 0.00, 0
54, -6384.15, 6257.86, -6533.12, -6406.26, -92540.27, -187500.02, -40107.19, 138663.31, 0.00, 0.00, 0.00, 0.00, 0.00, 0.00, 0.00, 0.00, 0
55, -6383.52, 6259.92, -6532.52, -6405.85, -92540.24, -187500.02, -40080.34, 138676.77, 0.00, 0.00, 0.00, 0.00, 0.00, 0.00, 0.00, 0.00, 0
56, -6385.13, 6263.43, -6534.02, -6407.37, -92542.34, -187500.02, -40063.06, 138690.52, 0.00, 0.00, 0.00, 0.00, 0.00, 0.00, 0.00, 0.00, 0
57, -6384.02, 6259.81, -6532.90, -6406.10, -92540.89, -187500.02, -40089.17, 138679.84, 0.00, 0.00, 0.00, 0.00, 0.00, 0.00, 0.00, 0.00, 0
58, -6379.95, 6253.57, -6528.85, -6402.12, -92536.71, -187500.02, -40111.16, 138668.61, 0.00, 0.00, 0.00, 0.00, 0.00, 0.00, 0.00, 0.00, 0
59, -6379.68, 6255.49, -6528.77, -6402.08, -92537.05, -187500.02, -40088.72, 138673.84, 0.00, 0.00, 0.00, 0.00, 0.00, 0.00, 0.00, 0.00, 0
60, -6382.56, 6260.86, -6531.60, -6404.83, -92540.47, -187500.02, -40066.15, 138691.94, 0.00, 0.00, 0.00, 0.00, 0.00, 0.00, 0.00, 0.00, 0
61, -6384.06, 6260.63, -6533.10, -6406.21, -92541.94, -187500.02, -40085.59, 138678.78, 0.00, 0.00, 0.00, 0.00, 0.00, 0.00, 0.00, 0.00, 0
62, -6380.84, 6254.82, -6529.91, -6403.15, -92538.66, -187500.02, -40111.88, 138664.55, 0.00, 0.00, 0.00, 0.00, 0.00, 0.00, 0.00, 0.00, 0
63, -6383.14, 6258.47, -6532.23, -6405.52, -92541.27, -187500.02, -40097.66, 138663.53, 0.00, 0.00, 0.00, 0.00, 0.00, 0.00, 0.00, 0.00, 0
64, -6387.48, 6265.71, -6536.57, -6409.90, -92546.26, -187500.02, -40071.29, 138682.27, 0.00, 0.00, 0.00, 0.00, 0.00, 0.00, 0.00, 0.00, 0
65, -6385.63, 6262.87, -6534.67, -6407.98, -92544.45, -187500.02, -40084.14, 138675.27, 0.00, 0.00, 0.00, 0.00, 0.00, 0.00, 0.00, 0.00, 0
66, -6385.04, 6259.29, -6534.11, -6407.31, -92543.59, -187500.02, -40113.49, 138658.08, 0.00, 0.00, 0.00, 0.00, 0.00, 0.00, 0.00, 0.00, 0
67, -6382.52, 6257.39, -6531.67, -6404.94, -92541.34, -187500.02, -40105.06, 138658.11, 0.00, 0.00, 0.00, 0.00, 0.00, 0.00, 0.00, 0.00, 0
68, -6384.78, 6262.69, -6534.00, -6407.26, -92544.22, -187500.02, -40073.75, 138672.88, 0.00, 0.00, 0.00, 0.00, 0.00, 0.00, 0.00, 0.00, 0
69, -6385.16, 6262.87, -6534.29, -6407.44, -92544.69, -187500.02, -40077.17, 138671.17, 0.00, 0.00, 0.00, 0.00, 0.00, 0.00, 0.00, 0.00, 0
70, -6384.26, 6258.87, -6533.37, -6406.50, -92543.59, -187500.02, -40109.76, 138652.66, 0.00, 0.00, 0.00, 0.00, 0.00, 0.00, 0.00, 0.00, 0
71, -6386.85, 6261.17, -6535.96, -6409.30, -92546.41, -187500.02, -40111.46, 138649.94, 0.00, 0.00, 0.00, 0.00, 0.00, 0.00, 0.00, 0.00, 0
72, -6389.74, 6267.14, -6538.89, -6412.29, -92549.92, -187500.02, -40082.24, 138667.48, 0.00, 0.00, 0.00, 0.00, 0.00, 0.00, 0.00, 0.00, 0
73, -6390.39, 6268.46, -6539.49, -6412.85, -92550.91, -187500.02, -40079.22, 138674.53, 0.00, 0.00, 0.00, 0.00, 0.00, 0.00, 0.00, 0.00, 0
74, -6383.68, 6258.87, -6532.77, -6406.14, -92543.84, -187500.02, -40110.02, 138652.52, 0.00, 0.00, 0.00, 0.00, 0.00, 0.00, 0.00, 0.00, 0
75, -6381.00, 6255.20, -6530.15, -6403.57, -92541.27, -187500.02, -40118.36, 138646.66, 0.00, 0.00, 0.00, 0.00, 0.00, 0.00, 0.00, 0.00, 0
76, -6380.91, 6258.02, -6530.22, -6403.69, -92541.78, -187500.02, -40089.37, 138660.86, 0.00, 0.00, 0.00, 0.00, 0.00, 0.00, 0.00, 0.00, 0
77, -6384.26, 6262.80, -6533.37, -6406.79, -92545.43, -187500.02, -40077.41, 138670.84, 0.00, 0.00, 0.00, 0.00, 0.00, 0.00, 0.00, 0.00, 0
78, -6382.14, 6257.91, -6531.25, -6404.53, -92543.17, -187500.02, -40105.78, 138653.92, 0.00, 0.00, 0.00, 0.00, 0.00, 0.00, 0.00, 0.00, 0
79, -6381.38, 6255.34, -6530.44, -6403.84, -92542.27, -187500.02, -40122.59, 138642.02, 0.00, 0.00, 0.00, 0.00, 0.00, 0.00, 0.00, 0.00, 0
80, -6382.36, 6258.76, -6531.58, -6405.12, -92543.73, -187500.02, -40098.40, 138655.47, 0.00, 0.00, 0.00, 0.00, 0.00, 0.00, 0.00, 0.00, 0
81, -6386.76, 6265.40, -6535.85, -6409.43, -92548.73, -187500.02, -40079.56, 138673.61, 0.00, 0.00, 0.00, 0.00, 0.00, 0.00, 0.00, 0.00, 0
82, -6387.95, 6264.37, -6536.99, -6410.50, -92549.74, -187500.02, -40102.40, 138660.45, 0.00, 0.00, 0.00, 0.00, 0.00, 0.00, 0.00, 0.00, 0
83, -6384.02, 6258.09, -6533.17, -6406.64, -92545.67, -187500.02, -40125.11, 138647.48, 0.00, 0.00, 0.00, 0.00, 0.00, 0.00, 0.00, 0.00, 0
84, -6380.13, 6256.01, -6529.21, -6402.84, -92542.27, -187500.02, -40107.14, 138651.28, 0.00, 0.00, 0.00, 0.00, 0.00, 0.00, 0.00, 0.00, 0
85, -6384.13, 6262.69, -6533.26, -6406.81, -92546.88, -187500.02, -40082.80, 138670.59, 0.00, 0.00, 0.00, 0.00, 0.00, 0.00, 0.00, 0.00, 0
86, -6386.54, 6263.65, -6535.63, -6409.09, -92549.09, -187500.02, -40099.81, 138660.03, 0.00, 0.00, 0.00, 0.00, 0.00, 0.00, 0.00, 0.00, 0
87, -6383.17, 6257.42, -6532.16, -6405.70, -92545.45, -187500.02, -40128.00, 138643.34, 0.00, 0.00, 0.00, 0.00, 0.00, 0.00, 0.00, 0.00, 0
88, -6385.20, 6260.59, -6534.29, -6408.04, -92548.04, -187500.02, -40116.29, 138645.30, 0.00, 0.00, 0.00, 0.00, 0.00, 0.00, 0.00, 0.00, 0
89, -6388.60, 6267.09, -6537.82, -6411.53, -92552.11, -187500.02, -40087.54, 138663.77, 0.00, 0.00, 0.00, 0.00, 0.00, 0.00, 0.00, 0.00, 0
90, -6385.98, 6263.67, -6535.11, -6408.69, -92549.48, -187500.02, -40096.50, 138659.56, 0.00, 0.00, 0.00, 0.00, 0.00, 0.00, 0.00, 0.00, 0
91, -6382.81, 6257.39, -6531.78, -6405.41, -92545.96, -187500.02, -40125.76, 138641.23, 0.00, 0.00, 0.00, 0.00, 0.00, 0.00, 0.00, 0.00, 0
92, -6379.01, 6253.95, -6527.98, -6401.79, -92542.45, -187500.02, -40120.87, 138638.39, 0.00, 0.00, 0.00, 0.00, 0.00, 0.00, 0.00, 0.00, 0
93, -6379.66, 6257.75, -6528.77, -6402.57, -92543.80, -187500.02, -40092.75, 138656.00, 0.00, 0.00, 0.00, 0.00, 0.00, 0.00, 0.00, 0.00, 0
94, -6382.81, 6261.04, -6531.96, -6405.47, -92547.10, -187500.02, -40095.36, 138659.00, 0.00, 0.00, 0.00, 0.00, 0.00, 0.00, 0.00, 0.00, 0
95, -6381.56, 6256.66, -6530.64, -6404.11, -92545.52, -187500.02, -40127.35, 138637.55, 0.00, 0.00, 0.00, 0.00, 0.00, 0.00, 0.00, 0.00, 0
96, -6379.95, 6254.64, -6529.03, -6402.75, -92544.11, -187500.02, -40131.15, 138634.88, 0.00, 0.00, 0.00, 0.00, 0.00, 0.00, 0.00, 0.00, 0
97, -6381.78, 6259.47, -6530.89, -6404.71, -92546.66, -187500.02, -40101.53, 138652.53, 0.00, 0.00, 0.00, 0.00, 0.00, 0.00, 0.00, 0.00, 0
98, -6386.21, 6264.77, -6535.23, -6408.96, -92551.17, -187500.02, -40095.05, 138661.48, 0.00, 0.00, 0.00, 0.00, 0.00, 0.00, 0.00, 0.00, 0
99, -6384.15, 6259.78, -6533.10, -6406.73, -92548.83, -187500.02, -40127.19, 138640.44, 0.00, 0.00, 0.00, 0.00, 0.00, 0.00, 0.00, 0.00, 0
100, -6383.08, 6257.35, -6532.01, -6405.70, -92547.75, -187500.02, -40140.94, 138632.13, 0.00, 0.00, 0.00, 0.00, 0.00, 0.00, 0.00, 0.00, 0
101, -6382.61, 6259.61, -6531.63, -6405.47, -92547.88, -187500.02, -40114.47, 138644.38, 0.00, 0.00, 0.00, 0.00, 0.00, 0.00, 0.00, 0.00, 0
102, -6383.23, 6261.93, -6532.16, -6405.88, -92548.84, -187500.02, -40100.44, 138659.00, 0.00, 0.00, 0.00, 0.00, 0.00, 0.00, 0.00, 0.00, 0
103, -6381.96, 6258.20, -6530.98, -6404.56, -92547.48, -187500.02, -40126.01, 138643.91, 0.00, 0.00, 0.00, 0.00, 0.00, 0.00, 0.00, 0.00, 0
104, -6375.32, 6249.53, -6524.23, -6397.87, -92540.71, -187500.02, -40144.71, 138632.73, 0.00, 0.00, 0.00, 0.00, 0.00, 0.00, 0.00, 0.00, 0
105, -6377.56, 6254.00, -6526.62, -6400.33, -92543.48, -187500.02, -40122.43, 138642.19, 0.00, 0.00, 0.00, 0.00, 0.00, 0.00, 0.00, 0.00, 0
106, -6381.33, 6260.23, -6530.29, -6403.95, -92547.88, -187500.02, -40101.98, 138657.83, 0.00, 0.00, 0.00, 0.00, 0.00, 0.00, 0.00, 0.00, 0
107, -6381.80, 6258.73, -6530.75, -6404.38, -92548.13, -187500.02, -40123.88, 138652.58, 0.00, 0.00, 0.00, 0.00, 0.00, 0.00, 0.00, 0.00, 0
108, -6378.09, 6252.39, -6526.98, -6400.71, -92544.16, -187500.02, -40148.85, 138637.20, 0.00, 0.00, 0.00, 0.00, 0.00, 0.00, 0.00, 0.00, 0
109, -6376.55, 6252.48, -6525.57, -6399.44, -92543.17, -187500.02, -40131.84, 138644.36, 0.00, 0.00, 0.00, 0.00, 0.00, 0.00, 0.00, 0.00, 0
110, -6380.24, 6259.02, -6529.19, -6403.15, -92547.48, -187500.02, -40104.93, 138664.67, 0.00, 0.00, 0.00, 0.00, 0.00, 0.00, 0.00, 0.00, 0
111, -6380.08, 6257.71, -6528.99, -6402.86, -92547.23, -187500.02, -40118.38, 138660.73, 0.00, 0.00, 0.00, 0.00, 0.00, 0.00, 0.00, 0.00, 0
112, -6376.95, 6251.58, -6525.86, -6399.71, -92543.80, -187500.02, -40147.11, 138641.00, 0.00, 0.00, 0.00, 0.00, 0.00, 0.00, 0.00, 0.00, 0
113, -6378.65, 6254.15, -6527.67, -6401.58, -92545.79, -187500.02, -40137.54, 138648.06, 0.00, 0.00, 0.00, 0.00, 0.00, 0.00, 0.00, 0.00, 0
114, -6385.16, 6263.81, -6534.13, -6408.18, -92553.01, -187500.02, -40107.25, 138670.91, 0.00, 0.00, 0.00, 0.00, 0.00, 0.00, 0.00, 0.00, 0
115, -6388.13, 6266.40, -6537.15, -6411.08, -92556.05, -187500.02, -40115.19, 138667.61, 0.00, 0.00, 0.00, 0.00, 0.00, 0.00, 0.00, 0.00, 0
116, -6383.01, 6258.11, -6532.01, -6405.76, -92550.55, -187500.02, -40148.18, 138646.39, 0.00, 0.00, 0.00, 0.00, 0.00, 0.00, 0.00, 0.00, 0
117, -6379.86, 6254.84, -6528.79, -6402.72, -92547.55, -187500.02, -40147.35, 138644.11, 0.00, 0.00, 0.00, 0.00, 0.00, 0.00, 0.00, 0.00, 0
118, -6380.42, 6258.51, -6529.35, -6403.35, -92548.65, -187500.02, -40115.48, 138667.05, 0.00, 0.00, 0.00, 0.00, 0.00, 0.00, 0.00, 0.00, 0
119, -6380.93, 6259.40, -6529.70, -6403.64, -92549.45, -187500.02, -40113.16, 138669.06, 0.00, 0.00, 0.00, 0.00, 0.00, 0.00, 0.00, 0.00, 0
120, -6380.35, 6255.87, -6529.19, -6403.15, -92548.69, -187500.02, -40144.36, 138650.45, 0.00, 0.00, 0.00, 0.00, 0.00, 0.00, 0.00, 0.00, 0
121, -6380.01, 6254.87, -6528.94, -6402.90, -92548.49, -187500.02, -40151.78, 138644.02, 0.00, 0.00, 0.00, 0.00, 0.00, 0.00, 0.00, 0.00, 0
122, -6379.66, 6257.46, -6528.70, -6402.75, -92548.71, -187500.02, -40123.75, 138663.02, 0.00, 0.00, 0.00, 0.00, 0.00, 0.00, 0.00, 0.00, 0
123, -6380.26, 6259.34, -6529.26, -6403.22, -92549.65, -187500.02, -40112.75, 138674.64, 0.00, 0.00, 0.00, 0.00, 0.00, 0.00, 0.00, 0.00, 0
124, -6381.18, 6257.37, -6530.08, -6404.02, -92550.28, -187500.02, -40140.04, 138658.39, 0.00, 0.00, 0.00, 0.00, 0.00, 0.00, 0.00, 0.00, 0
125, -6378.11, 6252.70, -6526.93, -6400.98, -92547.10, -187500.02, -40153.70, 138649.67, 0.00, 0.00, 0.00, 0.00, 0.00, 0.00, 0.00, 0.00, 0
126, -6376.46, 6253.53, -6525.30, -6399.44, -92545.98, -187500.02, -40128.44, 138661.70, 0.00, 0.00, 0.00, 0.00, 0.00, 0.00, 0.00, 0.00, 0
127, -6379.72, 6258.82, -6528.48, -6402.48, -92549.77, -187500.02, -40111.55, 138675.66, 0.00, 0.00, 0.00, 0.00, 0.00, 0.00, 0.00, 0.00, 0
128, -6374.47, 6251.31, -6523.29, -6397.25, -92544.35, -187500.02, -40136.49, 138666.63, 0.00, 0.00, 0.00, 0.00, 0.00, 0.00, 0.00, 0.00, 0
129, -6369.73, 6244.29, -6518.53, -6392.55, -92539.48, -187500.02, -40157.21, 138652.02, 0.00, 0.00, 0.00, 0.00, 0.00, 0.00, 0.00, 0.00, 0
130, -6370.67, 6247.33, -6519.53, -6393.74, -92540.89, -187500.02, -40136.29, 138665.13, 0.00, 0.00, 0.00, 0.00, 0.00, 0.00, 0.00, 0.00, 0
131, -6375.21, 6254.35, -6523.85, -6398.10, -92545.98, -187500.02, -40113.71, 138683.11, 0.00, 0.00, 0.00, 0.00, 0.00, 0.00, 0.00, 0.00, 0
132, -6377.58, 6255.05, -6526.28, -6400.33, -92548.22, -187500.02, -40132.36, 138674.47, 0.00, 0.00, 0.00, 0.00, 0.00, 0.00, 0.00, 0.00, 0
133, -6374.09, 6248.79, -6522.75, -6396.87, -92544.42, -187500.02, -40159.55, 138659.56, 0.00, 0.00, 0.00, 0.00, 0.00, 0.00, 0.00, 0.00, 0
134, -6372.24, 6248.23, -6521.01, -6395.12, -92542.97, -187500.02, -40147.11, 138663.11, 0.00, 0.00, 0.00, 0.00, 0.00, 0.00, 0.00, 0.00, 0
135, -6374.74, 6253.82, -6523.58, -6397.72, -92546.14, -187500.02, -40120.08, 138684.44, 0.00, 0.00, 0.00, 0.00, 0.00, 0.00, 0.00, 0.00, 0
136, -6377.18, 6255.31, -6525.90, -6400.04, -92548.60, -187500.02, -40132.04, 138679.61, 0.00, 0.00, 0.00, 0.00, 0.00, 0.00, 0.00, 0.00, 0
137, -6378.00, 6253.01, -6526.75, -6400.78, -92549.18, -187500.02, -40161.43, 138659.94, 0.00, 0.00, 0.00, 0.00, 0.00, 0.00, 0.00, 0.00, 0
138, -6376.71, 6252.25, -6525.50, -6399.71, -92548.11, -187500.02, -40154.10, 138660.58, 0.00, 0.00, 0.00, 0.00, 0.00, 0.00, 0.00, 0.00, 0
139, -6378.79, 6257.50, -6527.54, -6401.81, -92550.79, -187500.02, -40124.51, 138682.31, 0.00, 0.00, 0.00, 0.00, 0.00, 0.00, 0.00, 0.00, 0
140, -6379.05, 6257.73, -6527.87, -6401.87, -92551.22, -187500.02, -40128.24, 138683.34, 0.00, 0.00, 0.00, 0.00, 0.00, 0.00, 0.00, 0.00, 0
141, -6374.58, 6250.17, -6523.33, -6397.38, -92546.55, -187500.02, -40159.51, 138662.02, 0.00, 0.00, 0.00, 0.00, 0.00, 0.00, 0.00, 0.00, 0
142, -6372.33, 6247.67, -6521.12, -6395.28, -92544.40, -187500.02, -40160.41, 138659.13, 0.00, 0.00, 0.00, 0.00, 0.00, 0.00, 0.00, 0.00, 0
143, -6374.85, 6253.30, -6523.71, -6397.81, -92547.53, -187500.02, -40129.85, 138680.14, 0.00, 0.00, 0.00, 0.00, 0.00, 0.00, 0.00, 0.00, 0
144, -6381.18, 6260.34, -6529.88, -6403.98, -92554.08, -187500.02, -40123.66, 138688.17, 0.00, 0.00, 0.00, 0.00, 0.00, 0.00, 0.00, 0.00, 0
145, -6379.46, 6255.54, -6528.18, -6402.23, -92552.13, -187500.02, -40154.15, 138669.39, 0.00, 0.00, 0.00, 0.00, 0.00, 0.00, 0.00, 0.00, 0
146, -6374.36, 6249.35, -6523.11, -6397.31, -92547.04, -187500.02, -40164.70, 138662.38, 0.00, 0.00, 0.00, 0.00, 0.00, 0.00, 0.00, 0.00, 0
147, -6374.85, 6252.63, -6523.69, -6397.85, -92548.04, -187500.02, -40137.81, 138681.81, 0.00, 0.00, 0.00, 0.00, 0.00, 0.00, 0.00, 0.00, 0
148, -6376.33, 6255.60, -6525.01, -6399.13, -92549.90, -187500.02, -40123.39, 138693.58, 0.00, 0.00, 0.00, 0.00, 0.00, 0.00, 0.00, 0.00, 0
149, -6376.75, 6253.41, -6525.46, -6399.55, -92550.16, -187500.02, -40151.58, 138676.72, 0.00, 0.00, 0.00, 0.00, 0.00, 0.00, 0.00, 0.00, 0
150, -6374.43, 6249.23, -6523.18, -6397.29, -92547.82, -187500.02, -40168.68, 138664.16, 0.00, 0.00, 0.00, 0.00, 0.00, 0.00, 0.00, 0.00, 0
151, -6375.21, 6252.43, -6523.98, -6398.21, -92549.07, -187500.02, -40144.31, 138681.45, 0.00, 0.00, 0.00, 0.00, 0.00, 0.00, 0.00, 0.00, 0
152, -6380.31, 6259.78, -6528.99, -6403.19, -92554.68, -187500.02, -40124.15, 138699.14, 0.00, 0.00, 0.00, 0.00, 0.00, 0.00, 0.00, 0.00, 0
153, -6378.03, 6255.47, -6526.89, -6400.91, -92552.24, -187500.02, -40146.59, 138687.92, 0.00, 0.00, 0.00, 0.00, 0.00, 0.00, 0.00, 0.00, 0
154, -6373.24, 6248.27, -6522.15, -6396.20, -92547.30, -187500.02, -40171.43, 138673.41, 0.00, 0.00, 0.00, 0.00, 0.00, 0.00, 0.00, 0.00, 0
155, -6374.76, 6251.47, -6523.67, -6397.85, -92549.16, -187500.02, -40153.84, 138678.63, 0.00, 0.00, 0.00, 0.00, 0.00, 0.00, 0.00, 0.00, 0
156, -6379.52, 6258.91, -6528.34, -6402.52, -92554.37, -187500.02, -40127.23, 138699.36, 0.00, 0.00, 0.00, 0.00, 0.00, 0.00, 0.00, 0.00, 0
157, -6377.69, 6255.78, -6526.53, -6400.58, -92552.63, -187500.02, -40143.31, 138688.28, 0.00, 0.00, 0.00, 0.00, 0.00, 0.00, 0.00, 0.00, 0
158, -6373.09, 6248.27, -6521.84, -6395.95, -92547.77, -187500.02, -40172.70, 138671.64, 0.00, 0.00, 0.00, 0.00, 0.00, 0.00, 0.00, 0.00, 0
159, -6372.30, 6248.39, -6521.08, -6395.33, -92547.33, -187500.02, -40162.35, 138673.89, 0.00, 0.00, 0.00, 0.00, 0.00, 0.00, 0.00, 0.00, 0
160, -6375.23, 6254.24, -6523.89, -6398.23, -92550.73, -187500.02, -40132.36, 138693.98, 0.00, 0.00, 0.00, 0.00, 0.00, 0.00, 0.00, 0.00, 0
161, -6373.58, 6251.96, -6522.15, -6396.38, -92549.05, -187500.02, -40140.76, 138690.14, 0.00, 0.00, 0.00, 0.00, 0.00, 0.00, 0.00, 0.00, 0
162, -6373.73, 6249.03, -6522.33, -6396.47, -92549.01, -187500.02, -40172.61, 138670.33, 0.00, 0.00, 0.00, 0.00, 0.00, 0.00, 0.00, 0.00, 0
163, -6374.49, 6249.97, -6523.02, -6397.40, -92550.08, -187500.02, -40170.26, 138667.05, 0.00, 0.00, 0.00, 0.00, 0.00, 0.00, 0.00, 0.00, 0
164, -6376.10, 6254.71, -6524.63, -6399.06, -92552.27, -187500.02, -40140.76, 138685.59, 0.00, 0.00, 0.00, 0.00, 0.00, 0.00, 0.00, 0.00, 0
165, -6376.93, 6255.87, -6525.59, -6399.75, -92553.27, -187500.02, -40140.67, 138687.56, 0.00, 0.00, 0.00, 0.00, 0.00, 0.00, 0.00, 0.00, 0
166, -6375.59, 6251.38, -6524.27, -6398.34, -92551.69, -187500.02, -40171.87, 138667.52, 0.00, 0.00, 0.00, 0.00, 0.00, 0.00, 0.00, 0.00, 0
167, -6372.68, 6247.78, -6521.32, -6395.55, -92548.84, -187500.02, -40175.96, 138663.11, 0.00, 0.00, 0.00, 0.00, 0.00, 0.00, 0.00, 0.00, 0
168, -6374.20, 6252.30, -6522.93, -6397.27, -92550.93, -187500.02, -40144.52, 138675.84, 0.00, 0.00, 0.00, 0.00, 0.00, 0.00, 0.00, 0.00, 0
169, -6376.44, 6255.76, -6525.21, -6399.42, -92553.50, -187500.02, -40136.45, 138685.95, 0.00, 0.00, 0.00, 0.00, 0.00, 0.00, 0.00, 0.00, 0
170, -6377.49, 6254.00, -6526.17, -6400.33, -92554.23, -187500.02, -40167.04, 138665.56, 0.00, 0.00, 0.00, 0.00, 0.00, 0.00, 0.00, 0.00, 0
171, -6373.02, 6248.18, -6521.75, -6396.00, -92549.80, -187500.02, -40179.43, 138658.50, 0.00, 0.00, 0.00, 0.00, 0.00, 0.00, 0.00, 0.00, 0
172, -6373.00, 6250.78, -6521.72, -6396.09, -92550.39, -187500.02, -40153.48, 138670.39, 0.00, 0.00, 0.00, 0.00, 0.00, 0.00, 0.00, 0.00, 0
173, -6374.20, 6253.93, -6522.91, -6397.27, -92552.05, -187500.02, -40138.64, 138683.50, 0.00, 0.00, 0.00, 0.00, 0.00, 0.00, 0.00, 0.00, 0
174, -6374.18, 6251.47, -6522.95, -6397.18, -92551.75, -187500.02, -40164.45, 138667.53, 0.00, 0.00, 0.00, 0.00, 0.00, 0.00, 0.00, 0.00, 0
175, -6373.06, 6248.12, -6521.72, -6395.93, -92550.39, -187500.02, -40183.34, 138656.88, 0.00, 0.00, 0.00, 0.00, 0.00, 0.00, 0.00, 0.00, 0
176, -6370.85, 6248.18, -6519.65, -6394.05, -92548.89, -187500.02, -40159.58, 138660.98, 0.00, 0.00, 0.00, 0.00, 0.00, 0.00, 0.00, 0.00, 0
177, -6371.79, 6251.51, -6520.43, -6394.90, -92550.44, -187500.02, -40136.51, 138677.33, 0.00, 0.00, 0.00, 0.00, 0.00, 0.00, 0.00, 0.00, 0
178, -6373.31, 6251.11, -6521.93, -6396.31, -92551.77, -187500.02, -40157.41, 138666.48, 0.00, 0.00, 0.00, 0.00, 0.00, 0.00, 0.00, 0.00, 0
179, -6370.83, 6245.90, -6519.42, -6393.74, -92549.01, -187500.02, -40184.77, 138653.36, 0.00, 0.00, 0.00, 0.00, 0.00, 0.00, 0.00, 0.00, 0
180, -6371.45, 6247.96, -6520.05, -6394.48, -92549.98, -187500.02, -40169.19, 138654.11, 0.00, 0.00, 0.00, 0.00, 0.00, 0.00, 0.00, 0.00, 0
181, -6374.47, 6253.86, -6523.02, -6397.52, -92553.61, -187500.02, -40140.31, 138670.63, 0.00, 0.00, 0.00, 0.00, 0.00, 0.00, 0.00, 0.00, 0
182, -6375.07, 6253.41, -6523.56, -6397.92, -92554.13, -187500.02, -40153.66, 138662.27, 0.00, 0.00, 0.00, 0.00, 0.00, 0.00, 0.00, 0.00, 0
183, -6369.93, 6245.17, -6518.42, -6392.73, -92548.63, -187500.02, -40183.81, 138644.63, 0.00, 0.00, 0.00, 0.00, 0.00, 0.00, 0.00, 0.00, 0
184, -6367.50, 6243.45, -6516.07, -6390.52, -92546.57, -187500.02, -40176.14, 138643.69, 0.00, 0.00, 0.00, 0.00, 0.00, 0.00, 0.00, 0.00, 0
185, -6373.51, 6252.63, -6522.04, -6396.71, -92553.25, -187500.02, -40146.50, 138662.64, 0.00, 0.00, 0.00, 0.00, 0.00, 0.00, 0.00, 0.00, 0
186, -6371.63, 6250.51, -6520.20, -6394.74, -92551.58, -187500.02, -40152.02, 138660.77, 0.00, 0.00, 0.00, 0.00, 0.00, 0.00, 0.00, 0.00, 0
187, -6367.94, 6243.71, -6516.49, -6390.92, -92547.46, -187500.02, -40182.91, 138640.44, 0.00, 0.00, 0.00, 0.00, 0.00, 0.00, 0.00, 0.00, 0
188, -6368.48, 6244.14, -6517.10, -6391.64, -92548.27, -187500.02, -40184.34, 138636.67, 0.00, 0.00, 0.00, 0.00, 0.00, 0.00, 0.00, 0.00, 0
189, -6367.81, 6246.62, -6516.45, -6391.12, -92548.31, -187500.02, -40154.86, 138653.63, 0.00, 0.00, 0.00, 0.00, 0.00, 0.00, 0.00, 0.00, 0
190, -6368.15, 6247.40, -6516.63, -6391.19, -92548.71, -187500.02, -40152.83, 138658.45, 0.00, 0.00, 0.00, 0.00, 0.00, 0.00, 0.00, 0.00, 0
191, -6367.48, 6243.76, -6516.00, -6390.54, -92547.87, -187500.02, -40184.86, 138637.20, 0.00, 0.00, 0.00, 0.00, 0.00, 0.00, 0.00, 0.00, 0
192, -6364.86, 6240.36, -6513.54, -6388.15, -92545.38, -187500.02, -40191.68, 138631.08, 0.00, 0.00, 0.00, 0.00, 0.00, 0.00, 0.00, 0.00, 0
193, -6366.47, 6244.79, -6515.09, -6389.87, -92547.53, -187500.02, -40163.00, 138646.48, 0.00, 0.00, 0.00, 0.00, 0.00, 0.00, 0.00, 0.00, 0
194, -6371.61, 6251.25, -6520.16, -6394.88, -92553.05, -187500.02, -40150.88, 138657.17, 0.00, 0.00, 0.00, 0.00, 0.00, 0.00, 0.00, 0.00, 0
195, -6371.01, 6247.78, -6519.58, -6394.16, -92552.16, -187500.02, -40179.27, 138643.03, 0.00, 0.00, 0.00, 0.00, 0.00, 0.00, 0.00, 0.00, 0
196, -6366.94, 6242.02, -6515.51, -6390.16, -92548.04, -187500.02, -40196.41, 138633.97, 0.00, 0.00, 0.00, 0.00, 0.00, 0.00, 0.00, 0.00, 0
197, -6369.29, 6247.04, -6517.99, -6392.73, -92550.95, -187500.02, -40170.98, 138641.03, 0.00, 0.00, 0.00, 0.00, 0.00, 0.00, 0.00, 0.00, 0
198, -6375.48, 6255.31, -6524.12, -6398.77, -92557.59, -187500.02, -40151.36, 138657.72, 0.00, 0.00, 0.00, 0.00, 0.00, 0.00, 0.00, 0.00, 0
199, -6370.90, 6248.47, -6519.58, -6394.05, -92552.87, -187500.02, -40174.89, 138644.05, 0.00, 0.00, 0.00, 0.00, 0.00, 0.00, 0.00, 0.00, 0
200, -6366.42, 6241.70, -6515.18, -6389.58, -92548.24, -187500.02, -40195.95, 138633.61, 0.00, 0.00, 0.00, 0.00, 0.00, 0.00, 0.00, 0.00, 0
201, -6367.10, 6244.34, -6515.91, -6390.63, -92549.49, -187500.02, -40174.33, 138637.63, 0.00, 0.00, 0.00, 0.00, 0.00, 0.00, 0.00, 0.00, 0
202, -6368.70, 6248.54, -6517.34, -6392.08, -92551.62, -187500.02, -40149.01, 138652.58, 0.00, 0.00, 0.00, 0.00, 0.00, 0.00, 0.00, 0.00, 0
203, -6371.34, 6249.57, -6520.03, -6394.54, -92554.08, -187500.02, -40166.46, 138647.48, 0.00, 0.00, 0.00, 0.00, 0.00, 0.00, 0.00, 0.00, 0
204, -6368.57, 6244.09, -6517.34, -6391.73, -92551.13, -187500.02, -40193.17, 138630.83, 0.00, 0.00, 0.00, 0.00, 0.00, 0.00, 0.00, 0.00, 0
205, -6363.90, 6240.56, -6512.65, -6387.26, -92546.81, -187500.02, -40178.46, 138635.30, 0.00, 0.00, 0.00, 0.00, 0.00, 0.00, 0.00, 0.00, 0
206, -6366.38, 6246.04, -6515.09, -6389.72, -92549.97, -187500.02, -40150.66, 138656.58, 0.00, 0.00, 0.00, 0.00, 0.00, 0.00, 0.00, 0.00, 0
207, -6369.22, 6248.14, -6517.92, -6392.42, -92552.73, -187500.02, -40162.20, 138653.98, 0.00, 0.00, 0.00, 0.00, 0.00, 0.00, 0.00, 0.00, 0
208, -6368.21, 6244.00, -6516.92, -6391.53, -92551.41, -187500.02, -40193.93, 138638.05, 0.00, 0.00, 0.00, 0.00, 0.00, 0.00, 0.00, 0.00, 0
209, -6365.75, 6241.99, -6514.44, -6389.22, -92549.27, -187500.02, -40187.81, 138635.59, 0.00, 0.00, 0.00, 0.00, 0.00, 0.00, 0.00, 0.00, 0
210, -6365.98, 6245.32, -6514.64, -6389.54, -92550.16, -187500.02, -40155.89, 138655.67, 0.00, 0.00, 0.00, 0.00, 0.00, 0.00, 0.00, 0.00, 0
211, -6369.78, 6249.08, -6518.35, -6393.09, -92554.03, -187500.02, -40157.61, 138659.73, 0.00, 0.00, 0.00, 0.00, 0.00, 0.00, 0.00, 0.00, 0
212, -6367.92, 6244.07, -6516.45, -6391.08, -92551.84, -187500.02, -40189.08, 138641.11, 0.00, 0.00, 0.00, 0.00, 0.00, 0.00, 0.00, 0.00, 0
213, -6364.35, 6240.16, -6513.05, -6387.68, -92548.45, -187500.02, -40192.66, 138636.11, 0.00, 0.00, 0.00, 0.00, 0.00, 0.00, 0.00, 0.00, 0
214, -6368.08, 6246.89, -6516.70, -6391.46, -92552.73, -187500.02, -40163.34, 138653.92, 0.00, 0.00, 0.00, 0.00, 0.00, 0.00, 0.00, 0.00, 0
215, -6371.14, 6250.87, -6519.69, -6394.32, -92556.02, -187500.02, -40157.70, 138661.14, 0.00, 0.00, 0.00, 0.00, 0.00, 0.00, 0.00, 0.00, 0
216, -6367.05, 6243.92, -6515.67, -6390.34, -92551.75, -187500.02, -40189.26, 138646.81, 0.00, 0.00, 0.00, 0.00, 0.00, 0.00, 0.00, 0.00, 0
217, -6363.30, 6238.84, -6511.89, -6386.61, -92548.04, -187500.02, -40199.68, 138640.33, 0.00, 0.00, 0.00, 0.00, 0.00, 0.00, 0.00, 0.00, 0
218, -6362.80, 6241.14, -6511.42, -6386.27, -92548.06, -187500.02, -40170.80, 138653.19, 0.00, 0.00, 0.00, 0.00, 0.00, 0.00, 0.00, 0.00, 0
219, -6365.82, 6245.88, -6514.35, -6389.11, -92551.46, -187500.02, -40157.55, 138663.77, 0.00, 0.00, 0.00, 0.00, 0.00, 0.00, 0.00, 0.00, 0
220, -6367.14, 6244.61, -6515.80, -6390.41, -92552.55, -187500.02, -40184.32, 138649.97, 0.00, 0.00, 0.00, 0.00, 0.00, 0.00, 0.00, 0.00, 0
221, -6363.47, 6238.95, -6512.05, -6386.85, -92548.78, -187500.02, -40201.38, 138638.83, 0.00, 0.00, 0.00, 0.00, 0.00, 0.00, 0.00, 0.00, 0
222, -6362.13, 6239.96, -6510.82, -6385.71, -92548.11, -187500.02, -40177.26, 138650.48, 0.00, 0.00, 0.00, 0.00, 0.00, 0.00, 0.00, 0.00, 0
223, -6363.77, 6243.96, -6512.52, -6387.28, -92550.30, -187500.02, -40157.30, 138666.53, 0.00, 0.00, 0.00, 0.00, 0.00, 0.00, 0.00, 0.00, 0
224, -6364.08, 6242.31, -6512.81, -6387.44, -92550.44, -187500.02, -40180.30, 138654.48, 0.00, 0.00, 0.00, 0.00, 0.00, 0.00, 0.00, 0.00, 0
225, -6361.22, 6236.85, -6509.83, -6384.57, -92547.33, -187500.02, -40204.55, 138641.88, 0.00, 0.00, 0.00, 0.00, 0.00, 0.00, 0.00, 0.00, 0
226, -6359.27, 6236.56, -6507.96, -6382.90, -92545.80, -187500.02, -40187.38, 138648.98, 0.00, 0.00, 0.00, 0.00, 0.00, 0.00, 0.00, 0.00, 0
227, -6360.61, 6240.63, -6509.21, -6384.24, -92547.64, -187500.02, -40162.39, 138666.31, 0.00, 0.00, 0.00, 0.00, 0.00, 0.00, 0.00, 0.00, 0
228, -6361.46, 6240.07, -6510.08, -6384.91, -92548.38, -187500.02, -40178.46, 138657.20, 0.00, 0.00, 0.00, 0.00, 0.00, 0.00, 0.00, 0.00, 0
229, -6361.69, 6237.39, -6510.24, -6385.07, -92548.38, -187500.02, -40206.56, 138639.75, 0.00, 0.00, 0.00, 0.00, 0.00, 0.00, 0.00, 0.00, 0
230, -6361.33, 6237.99, -6509.88, -6384.89, -92548.31, -187500.02, -40195.83, 138643.33, 0.00, 0.00, 0.00, 0.00, 0.00, 0.00, 0.00, 0.00, 0
231, -6362.78, 6242.55, -6511.31, -6386.32, -92550.30, -187500.02, -40165.66, 138663.09, 0.00, 0.00, 0.00, 0.00, 0.00, 0.00, 0.00, 0.00, 0
232, -6364.12, 6243.40, -6512.65, -6387.50, -92551.73, -187500.02, -40171.47, 138660.86, 0.00, 0.00, 0.00, 0.00, 0.00, 0.00, 0.00, 0.00, 0
233, -6362.11, 6238.33, -6510.75, -6385.56, -92549.49, -187500.02, -40203.88, 138643.81, 0.00, 0.00, 0.00, 0.00, 0.00, 0.00, 0.00, 0.00, 0
234, -6360.95, 6237.21, -6509.65, -6384.57, -92548.60, -187500.02, -40202.45, 138640.80, 0.00, 0.00, 0.00, 0.00, 0.00, 0.00, 0.00, 0.00, 0
235, -6362.04, 6241.39, -6510.64, -6385.80, -92550.39, -187500.02, -40171.02, 138658.27, 0.00, 0.00, 0.00, 0.00, 0.00, 0.00, 0.00, 0.00, 0
236, -6365.75, 6245.50, -6514.17, -6389.31, -92554.32, -187500.02, -40169.19, 138662.53, 0.00, 0.00, 0.00, 0.00, 0.00, 0.00, 0.00, 0.00, 0
237, -6363.70, 6240.34, -6512.27, -6387.26, -92551.95, -187500.02, -40199.54, 138646.09, 0.00, 0.00, 0.00, 0.00, 0.00, 0.00, 0.00, 0.00, 0
238, -6359.45, 6235.26, -6508.07, -6383.10, -92547.71, -187500.02, -40204.33, 138641.23, 0.00, 0.00, 0.00, 0.00, 0.00, 0.00, 0.00, 0.00, 0
239, -6361.89, 6240.58, -6510.41, -6385.47, -92550.57, -187500.02, -40174.78, 138657.28, 0.00, 0.00, 0.00, 0.00, 0.00, 0.00, 0.00, 0.00, 0
240, -6363.63, 6243.49, -6511.98, -6387.06, -92552.67, -187500.02, -40167.22, 138668.94, 0.00, 0.00, 0.00, 0.00, 0.00, 0.00, 0.00, 0.00, 0
241, -6361.02, 6238.13, -6509.59, -6384.46, -92549.92, -187500.02, -40198.23, 138649.34, 0.00, 0.00, 0.00, 0.00, 0.00, 0.00, 0.00, 0.00, 0
242, -6358.22, 6233.77, -6506.79, -6381.80, -92547.06, -187500.02, -40211.84, 138640.09, 0.00, 0.00, 0.00, 0.00, 0.00, 0.00, 0.00, 0.00, 0
243, -6358.60, 6236.74, -6507.15, -6382.29, -92547.95, -187500.02, -40184.75, 138650.03, 0.00, 0.00, 0.00, 0.00, 0.00, 0.00, 0.00, 0.00, 0
244, -6361.66, 6241.63, -6509.97, -6385.02, -92551.40, -187500.02, -40167.63, 138664.09, 0.00, 0.00, 0.00, 0.00, 0.00, 0.00, 0.00, 0.00, 0
245, -6361.13, 6238.82, -6509.59, -6384.55, -92550.68, -187500.02, -40193.49, 138653.97, 0.00, 0.00, 0.00, 0.00, 0.00, 0.00, 0.00, 0.00, 0
246, -6359.65, 6235.15, -6508.16, -6383.12, -92549.12, -187500.02, -40213.67, 138645.25, 0.00, 0.00, 0.00, 0.00, 0.00, 0.00, 0.00, 0.00, 0
247, -6359.88, 6237.48, -6508.47, -6383.52, -92549.83, -187500.02, -40191.90, 138649.03, 0.00, 0.00, 0.00, 0.00, 0.00, 0.00, 0.00, 0.00, 0
248, -6362.89, 6242.95, -6511.24, -6386.36, -92553.45, -187500.02, -40169.61, 138661.86, 0.00, 0.00, 0.00, 0.00, 0.00, 0.00, 0.00, 0.00, 0
249, -6363.59, 6241.81, -6512.05, -6387.06, -92553.97, -187500.02, -40189.26, 138657.67, 0.00, 0.00, 0.00, 0.00, 0.00, 0.00, 0.00, 0.00, 0
250, -6359.67, 6235.29, -6508.18, -6383.19, -92549.88, -187500.02, -40216.17, 138644.80, 0.00, 0.00, 0.00, 0.00, 0.00, 0.00, 0.00, 0.00, 0
251, -6358.36, 6235.47, -6506.88, -6382.07, -92548.89, -187500.02, -40202.79, 138649.77, 0.00, 0.00, 0.00, 0.00, 0.00, 0.00, 0.00, 0.00, 0
252, -6364.77, 6244.79, -6513.01, -6388.15, -92555.89, -187500.02, -40175.11, 138665.33, 0.00, 0.00, 0.00, 0.00, 0.00, 0.00, 0.00, 0.00, 0
253, -6366.63, 6245.50, -6514.77, -6389.74, -92557.66, -187500.02, -40186.96, 138662.47, 0.00, 0.00, 0.00, 0.00, 0.00, 0.00, 0.00, 0.00, 0
254, -6363.52, 6239.51, -6511.89, -6386.88, -92554.32, -187500.02, -40216.09, 138649.52, 0.00, 0.00, 0.00, 0.00, 0.00, 0.00, 0.00, 0.00, 0
255, -6362.89, 6239.51, -6511.29, -6386.50, -92554.03, -187500.02, -40207.34, 138651.52, 0.00, 0.00, 0.00, 0.00, 0.00, 0.00, 0.00, 0.00, 0
0, -6366.02, 6245.84, -6514.19, -6389.40, -92557.81, -187500.02, -40175.67, 138669.06, 0.00, 0.00, 0.00, 0.00, 0.00, 0.00, 0.00, 0.00, 0
1, -6364.59, 6244.25, -6512.83, -6387.79, -92556.47, -187500.02, -40179.94, 138671.31, 0.00, 0.00, 0.00, 0.00, 0.00, 0.00, 0.00, 0.00, 0
2, -6361.73, 6238.10, -6509.99, -6384.93, -92553.19, -187500.02, -40210.38, 138658.30, 0.00, 0.00, 0.00, 0.00, 0.00, 0.00, 0.00, 0.00, 0
3, -6364.03, 6240.23, -6512.23, -6387.44, -92555.62, -187500.02, -40209.94, 138656.42, 0.00, 0.00, 0.00, 0.00, 0.00, 0.00, 0.00, 0.00, 0
4, -6364.52, 6243.76, -6512.65, -6387.90, -92556.76, -187500.02, -40180.12, 138671.69, 0.00, 0.00, 0.00, 0.00, 0.00, 0.00, 0.00, 0.00, 0
5, -6366.72, 6246.71, -6514.89, -6389.94, -92559.22, -187500.02, -40177.46, 138675.47, 0.00, 0.00, 0.00, 0.00, 0.00, 0.00, 0.00, 0.00, 0
6, -6365.24, 6242.15, -6513.52, -6388.53, -92557.43, -187500.02, -40207.16, 138662.02, 0.00, 0.00, 0.00, 0.00, 0.00, 0.00, 0.00, 0.00, 0
7, -6356.66, 6232.52, -6504.92, -6380.13, -92548.91, -187500.02, -40215.41, 138658.42, 0.00, 0.00, 0.00, 0.00, 0.00, 0.00, 0.00, 0.00, 0
8, -6355.70, 6234.37, -6503.89, -6379.12, -92548.53, -187500.02, -40186.65, 138671.09, 0.00, 0.00, 0.00, 0.00, 0.00, 0.00, 0.00, 0.00, 0
9, -6362.65, 6242.80, -6510.75, -6385.92, -92555.93, -187500.02, -40174.60, 138680.75, 0.00, 0.00, 0.00, 0.00, 0.00, 0.00, 0.00, 0.00, 0
10, -6360.57, 6238.01, -6508.92, -6383.93, -92553.63, -187500.02, -40204.26, 138669.44, 0.00, 0.00, 0.00, 0.00, 0.00, 0.00, 0.00, 0.00, 0
11, -6358.71, 6234.44, -6507.06, -6382.27, -92551.73, -187500.02, -40220.64, 138661.70, 0.00, 0.00, 0.00, 0.00, 0.00, 0.00, 0.00, 0.00, 0
12, -6358.98, 6237.14, -6507.26, -6382.56, -92552.45, -187500.02, -40196.39, 138666.17, 0.00, 0.00, 0.00, 0.00, 0.00, 0.00, 0.00, 0.00, 0
13, -6359.65, 6239.89, -6507.64, -6382.88, -92553.56, -187500.02, -40178.42, 138676.66, 0.00, 0.00, 0.00, 0.00, 0.00, 0.00, 0.00, 0.00, 0
14, -6361.40, 6239.35, -6509.52, -6384.60, -92555.06, -187500.02, -40200.53, 138670.94, 0.00, 0.00, 0.00, 0.00, 0.00, 0.00, 0.00, 0.00, 0
15, -6360.17, 6235.78, -6508.38, -6383.59, -92553.72, -187500.02, -40221.79, 138661.81, 0.00, 0.00, 0.00, 0.00, 0.00, 0.00, 0.00, 0.00, 0
16, -6357.13, 6234.59, -6505.23, -6380.48, -92551.15, -187500.02, -40202.32, 138665.97, 0.00, 0.00, 0.00, 0.00, 0.00, 0.00, 0.00, 0.00, 0
17, -6358.74, 6238.95, -6506.68, -6381.87, -92553.27, -187500.02, -40177.17, 138679.16, 0.00, 0.00, 0.00, 0.00, 0.00, 0.00, 0.00, 0.00, 0
18, -6362.89, 6241.63, -6510.97, -6385.98, -92557.37, -187500.02, -40192.79, 138674.94, 0.00, 0.00, 0.00, 0.00, 0.00, 0.00, 0.00, 0.00, 0
19, -6359.56, 6235.38, -6507.69, -6382.81, -92553.74, -187500.02, -40219.95, 138661.56, 0.00, 0.00, 0.00, 0.00, 0.00, 0.00, 0.00, 0.00, 0
20, -6357.93, 6234.86, -6506.19, -6381.38, -92552.55, -187500.02, -40204.89, 138662.16, 0.00, 0.00, 0.00, 0.00, 0.00, 0.00, 0.00, 0.00, 0
21, -6362.74, 6242.64, -6511.09, -6386.27, -92557.99, -187500.02, -40116.29, 138683.72, 0.00, 0.00, 0.00, 0.00, 0.00, 0.00, 0.00, 0.00, 0
22, -6361.82, 6241.08, -6510.28, -6385.40, -92557.09, -187500.02, -40034.41, 138680.08, 0.00, 0.00, 0.00, 0.00, 0.00, 0.00, 0.00, 0.00, 0
23, -6358.51, 6234.71, -6507.02, -6382.09, -92553.63, -187500.02, -40028.46, 138662.91, 0.00, 0.00, 0.00, 0.00, 0.00, 0.00, 0.00, 0.00, 0
24, -6357.01, 6233.66, -6505.61, -6380.89, -92552.42, -187500.02, -39994.96, 138660.47, 0.00, 0.00, 0.00, 0.00, 0.00, 0.00, 0.00, 0.00, 0
25, -6358.31, 6238.06, -6506.91, -6382.23, -92554.34, -187500.02, -39938.54, 138674.48, 0.00, 0.00, 0.00, 0.00, 0.00, 0.00, 0.00, 0.00, 0
26, -6359.27, 6239.15, -6507.87, -6383.19, -92555.48, -187500.02, -39914.45, 138675.61, 0.00, 0.00, 0.00, 0.00, 0.00, 0.00, 0.00, 0.00, 0
27, -6357.53, 6234.21, -6506.15, -6381.40, -92553.43, -187500.02, -39920.24, 138656.19, 0.00, 0.00, 0.00, 0.00, 0.00, 0.00, 0.00, 0.00, 0
28, -6355.25, 6231.35, -6503.89, -6379.17, -92551.24, -187500.02, -39896.79, 138649.14, 0.00, 0.00, 0.00, 0.00, 0.00, 0.00, 0.00, 0.00, 0
29, -6357.33, 6236.43, -6506.03, -6381.36, -92553.97, -187500.02, -39842.12, 138661.13, 0.00, 0.00, 0.00, 0.00, 0.00, 0.00, 0.00, 0.00, 0
30, -6359.25, 6239.35, -6508.02, -6383.26, -92556.16, -187500.02, -39831.79, 138669.30, 0.00, 0.00, 0.00, 0.00, 0.00, 0.00, 0.00, 0.00, 0
31, -6357.15, 6234.55, -6505.99, -6381.11, -92553.85, -187500.02, -39940.29, 138650.91, 0.00, 0.00, 0.00, 0.00, 0.00, 0.00, 0.00, 0.00, 0
32, -6352.28, 6228.25, -6500.98, -6376.30, -92548.91, -187500.02, -39986.60, 138642.45, 0.00, 0.00, 0.00, 0.00, 0.00, 0.00, 0.00, 0.00, 0
33, -6351.58, 6230.24, -6500.38, -6375.83, -92548.84, -187500.02, -39968.38, 138648.53, 0.00, 0.00, 0.00, 0.00, 0.00, 0.00, 0.00, 0.00, 0
34, -6352.72, 6233.21, -6501.59, -6377.04, -92550.50, -187500.02, -39962.64, 138660.61, 0.00, 0.00, 0.00, 0.00, 0.00, 0.00, 0.00, 0.00, 0
35, -6352.75, 6230.73, -6501.56, -6376.86, -92550.16, -187500.02, -39996.70, 138642.81, 0.00, 0.00, 0.00, 0.00, 0.00, 0.00, 0.00, 0.00, 0
36, -6347.49, 6223.35, -6496.27, -6371.59, -92544.76, -187500.02, -40021.11, 138631.39, 0.00, 0.00, 0.00, 0.00, 0.00, 0.00, 0.00, 0.00, 0
37, -6347.67, 6225.63, -6496.62, -6371.90, -92545.36, -187500.02, -40005.91, 138635.28, 0.00, 0.00, 0.00, 0.00, 0.00, 0.00, 0.00, 0.00, 0
38, -6354.11, 6234.50, -6503.15, -6378.38, -92552.38, -187500.02, -39990.53, 138651.47, 0.00, 0.00, 0.00, 0.00, 0.00, 0.00, 0.00, 0.00, 0
39, -6356.23, 6234.73, -6505.12, -6380.33, -92554.37, -187500.02, -40016.04, 138635.95, 0.00, 0.00, 0.00, 0.00, 0.00, 0.00, 0.00, 0.00, 0
40, -6354.69, 6230.66, -6503.53, -6378.83, -92552.73, -187500.02, -40045.32, 138623.81, 0.00, 0.00, 0.00, 0.00, 0.00, 0.00, 0.00, 0.00, 0
41, -6354.44, 6231.96, -6503.40, -6378.83, -92552.91, -187500.02, -40033.87, 138625.63, 0.00, 0.00, 0.00, 0.00, 0.00, 0.00, 0.00, 0.00, 0
42, -6354.35, 6234.59, -6503.35, -6378.79, -92553.27, -187500.02, -40011.83, 138643.53, 0.00, 0.00, 0.00, 0.00, 0.00, 0.00, 0.00, 0.00, 0
43, -6351.96, 6231.02, -6500.87, -6376.28, -92550.93, -187500.02, -40030.50, 138635.11, 0.00, 0.00, 0.00, 0.00, 0.00, 0.00, 0.00, 0.00, 0
44, -6348.61, 6224.65, -6497.36, -6372.75, -92547.26, -187500.02, -40063.00, 138619.50, 0.00, 0.00, 0.00, 0.00, 0.00, 0.00, 0.00, 0.00, 0
45, -6349.01, 6225.85, -6497.92, -6373.29, -92547.98, -187500.02, -40056.38, 138617.31, 0.00, 0.00, 0.00, 0.00, 0.00, 0.00, 0.00, 0.00, 0
46, -6350.89, 6230.79, -6499.84, -6375.30, -92550.44, -187500.02, -40029.16, 138632.41, 0.00, 0.00, 0.00, 0.00, 0.00, 0.00, 0.00, 0.00, 0
47, -6351.94, 6231.46, -6500.76, -6376.13, -92551.64, -187500.02, -40037.49, 138629.56, 0.00, 0.00, 0.00, 0.00, 0.00, 0.00, 0.00, 0.00, 0
48, -6350.18, 6226.55, -6498.81, -6374.29, -92549.38, -187500.02, -40071.96, 138611.50, 0.00, 0.00, 0.00, 0.00, 0.00, 0.00, 0.00, 0.00, 0
49, -6349.62, 6225.99, -6498.30, -6373.85, -92548.98, -187500.02, -40075.29, 138606.27, 0.00, 0.00, 0.00, 0.00, 0.00, 0.00, 0.00, 0.00, 0
50, -6350.33, 6229.90, -6499.08, -6374.69, -92550.34, -187500.02, -40047.73, 138621.22, 0.00, 0.00, 0.00, 0.00, 0.00, 0.00, 0.00, 0.00, 0
51, -6348.16, 6228.18, -6496.87, -6372.35, -92548.36, -187500.02, -40048.91, 138623.97, 0.00, 0.00, 0.00, 0.00, 0.00, 0.00, 0.00, 0.00, 0
52, -6346.13, 6223.08, -6494.79, -6370.11, -92545.96, -187500.02, -40083.63, 138604.08, 0.00, 0.00, 0.00, 0.00, 0.00, 0.00, 0.00, 0.00, 0
53, -6346.87, 6222.99, -6495.46, -6370.92, -92546.75, -187500.02, -40092.41, 138597.23, 0.00, 0.00, 0.00, 0.00, 0.00, 0.00, 0.00, 0.00, 0
54, -6348.83, 6227.75, -6497.36, -6373.02, -92549.20, -187500.02, -40066.17, 138607.66, 0.00, 0.00, 0.00, 0.00, 0.00, 0.00, 0.00, 0.00, 0
55, -6348.05, 6228.16, -6496.62, -6372.19, -92548.71, -187500.02, -40059.33, 138618.45, 0.00, 0.00, 0.00, 0.00, 0.00, 0.00, 0.00, 0.00, 0
56, -6348.12, 6225.68, -6496.85, -6372.42, -92548.78, -187500.02, -40089.35, 138602.22, 0.00, 0.00, 0.00, 0.00, 0.00, 0.00, 0.00, 0.00, 0
57, -6347.74, 6223.75, -6496.40, -6372.01, -92548.27, -187500.02, -40104.88, 138592.91, 0.00, 0.00, 0.00, 0.00, 0.00, 0.00, 0.00, 0.00, 0
58, -6350.64, 6229.34, -6499.42, -6375.19, -92551.80, -187500.02, -40079.74, 138601.47, 0.00, 0.00, 0.00, 0.00, 0.00, 0.00, 0.00, 0.00, 0
59, -6352.19, 6232.85, -6500.94, -6376.64, -92553.72, -187500.02, -40063.06, 138618.45, 0.00, 0.00, 0.00, 0.00, 0.00, 0.00, 0.00, 0.00, 0
60, -6349.68, 6228.04, -6498.43, -6373.98, -92551.06, -187500.02, -40088.95, 138600.45, 0.00, 0.00, 0.00, 0.00, 0.00, 0.00, 0.00, 0.00, 0
61, -6348.21, 6224.29, -6496.82, -6372.48, -92549.34, -187500.02, -40112.84, 138588.09, 0.00, 0.00, 0.00, 0.00, 0.00, 0.00, 0.00, 0.00, 0
62, -6351.45, 6229.41, -6500.00, -6375.75, -92552.87, -187500.02, -40092.19, 138592.97, 0.00, 0.00, 0.00, 0.00, 0.00, 0.00, 0.00, 0.00, 0
63, -6353.13, 6233.59, -6501.59, -6377.31, -92555.09, -187500.02, -40069.77, 138607.41, 0.00, 0.00, 0.00, 0.00, 0.00, 0.00, 0.00, 0.00, 0
64, -6352.48, 6231.24, -6500.98, -6376.55, -92554.26, -187500.02, -40091.63, 138602.69, 0.00, 0.00, 0.00, 0.00, 0.00, 0.00, 0.00, 0.00, 0
65, -6349.55, 6225.56, -6497.96, -6373.60, -92551.09, -187500.02, -40120.62, 138591.72, 0.00, 0.00, 0.00, 0.00, 0.00, 0.00, 0.00, 0.00, 0
66, -6346.40, 6223.78, -6494.99, -6370.74, -92548.38, -187500.02, -40108.21, 138593.64, 0.00, 0.00, 0.00, 0.00, 0.00, 0.00, 0.00, 0.00, 0
67, -6348.70, 6228.94, -6497.41, -6373.06, -92551.28, -187500.02, -40082.80, 138610.56, 0.00, 0.00, 0.00, 0.00, 0.00, 0.00, 0.00, 0.00, 0
68, -6351.52, 6230.84, -6500.16, -6375.75, -92554.01, -187500.02, -40096.28, 138604.30, 0.00, 0.00, 0.00, 0.00, 0.00, 0.00, 0.00, 0.00, 0
69, -6348.01, 6224.31, -6496.56, -6372.17, -92550.14, -187500.02, -40127.08, 138587.06, 0.00, 0.00, 0.00, 0.00, 0.00, 0.00, 0.00, 0.00, 0
70, -6347.14, 6223.91, -6495.75, -6371.52, -92549.49, -187500.02, -40121.80, 138585.02, 0.00, 0.00, 0.00, 0.00, 0.00, 0.00, 0.00, 0.00, 0
71, -6351.14, 6231.08, -6499.80, -6375.54, -92554.21, -187500.02, -40092.01, 138602.02, 0.00, 0.00, 0.00, 0.00, 0.00, 0.00, 0.00, 0.00, 0
72, -6348.03, 6227.96, -6496.71, -6372.30, -92551.26, -187500.02, -40096.21, 138604.25, 0.00, 0.00, 0.00, 0.00, 0.00, 0.00, 0.00, 0.00, 0
73, -6342.78, 6219.60, -6491.42, -6366.92, -92545.65, -187500.02, -40128.53, 138584.70, 0.00, 0.00, 0.00, 0.00, 0.00, 0.00, 0.00, 0.00, 0
74, -6340.72, 6217.18, -6489.31, -6365.06, -92543.69, -187500.02, -40130.21, 138582.91, 0.00, 0.00, 0.00, 0.00, 0.00, 0.00, 0.00, 0.00, 0
75, -6344.92, 6224.45, -6493.61, -6369.38, -92548.53, -187500.02, -40099.50, 138601.53, 0.00, 0.00, 0.00, 0.00, 0.00, 0.00, 0.00, 0.00, 0
76, -6346.51, 6226.73, -6495.13, -6370.74, -92550.41, -187500.02, -40095.14, 138609.06, 0.00, 0.00, 0.00, 0.00, 0.00, 0.00, 0.00, 0.00, 0
77, -6343.63, 6220.78, -6492.18, -6367.81, -92547.17, -187500.02, -40126.41, 138595.39, 0.00, 0.00, 0.00, 0.00, 0.00, 0.00, 0.00, 0.00, 0
78, -6339.87, 6216.00, -6488.42, -6364.10, -92543.39, -187500.02, -40136.51, 138588.08, 0.00, 0.00, 0.00, 0.00, 0.00, 0.00, 0.00, 0.00, 0
79, -6340.09, 6218.99, -6488.62, -6364.44, -92544.20, -187500.02, -40109.46, 138599.34, 0.00, 0.00, 0.00, 0.00, 0.00, 0.00, 0.00, 0.00, 0
80, -6346.35, 6226.73, -6494.77, -6370.49, -92550.84, -187500.02, -40097.04, 138609.42, 0.00, 0.00, 0.00, 0.00, 0.00, 0.00, 0.00, 0.00, 0
81, -6343.74, 6221.50, -6492.35, -6367.90, -92548.04, -187500.02, -40125.07, 138600.34, 0.00, 0.00, 0.00, 0.00, 0.00, 0.00, 0.00, 0.00, 0
82, -6339.42, 6215.37, -6488.06, -6363.65, -92543.53, -187500.02, -40142.48, 138587.16, 0.00, 0.00, 0.00, 0.00, 0.00, 0.00, 0.00, 0.00, 0
83, -6340.14, 6218.52, -6488.80, -6364.52, -92544.82, -187500.02, -40119.01, 138606.42, 0.00, 0.00, 0.00, 0.00, 0.00, 0.00, 0.00, 0.00, 0
84, -6347.07, 6227.64, -6495.66, -6371.23, -92552.34, -187500.02, -40100.17, 138622.63, 0.00, 0.00, 0.00, 0.00, 0.00, 0.00, 0.00, 0.00, 0
85, -6345.35, 6223.82, -6494.01, -6369.51, -92550.34, -187500.02, -40122.34, 138614.30, 0.00, 0.00, 0.00, 0.00, 0.00, 0.00, 0.00, 0.00, 0
86, -6340.25, 6216.29, -6488.98, -6364.52, -92545.09, -187500.02, -40145.56, 138599.98, 0.00, 0.00, 0.00, 0.00, 0.00, 0.00, 0.00, 0.00, 0
87, -6341.01, 6218.95, -6489.81, -6365.49, -92546.30, -187500.02, -40128.02, 138610.03, 0.00, 0.00, 0.00, 0.00, 0.00, 0.00, 0.00, 0.00, 0
88, -6341.66, 6222.26, -6490.41, -6366.13, -92547.44, -187500.02, -40103.95, 138630.41, 0.00, 0.00, 0.00, 0.00, 0.00, 0.00, 0.00, 0.00, 0
89, -6343.96, 6223.02, -6492.53, -6368.15, -92549.54, -187500.02, -40120.57, 138623.14, 0.00, 0.00, 0.00, 0.00, 0.00, 0.00, 0.00, 0.00, 0
90, -6342.31, 6218.46, -6490.97, -6366.49, -92547.59, -187500.02, -40149.75, 138605.17, 0.00, 0.00, 0.00, 0.00, 0.00, 0.00, 0.00, 0.00, 0
91, -6339.69, 6216.89, -6488.47, -6364.10, -92545.41, -187500.02, -40139.62, 138611.34, 0.00, 0.00, 0.00, 0.00, 0.00, 0.00, 0.00, 0.00, 0
92, -6343.00, 6223.35, -6491.75, -6367.43, -92549.43, -187500.02, -40111.12, 138633.30, 0.00, 0.00, 0.00, 0.00, 0.00, 0.00, 0.00, 0.00, 0
93, -6343.78, 6223.49, -6492.42, -6367.97, -92550.10, -187500.02, -40120.20, 138634.55, 0.00, 0.00, 0.00, 0.00, 0.00, 0.00, 0.00, 0.00, 0
94, -6341.41, 6218.05, -6490.05, -6365.55, -92547.35, -187500.02, -40152.09, 138613.47, 0.00, 0.00, 0.00, 0.00, 0.00, 0.00, 0.00, 0.00, 0
95, -6342.37, 6219.10, -6491.01, -6366.72, -92548.52, -187500.02, -40148.52, 138616.42, 0.00, 0.00, 0.00, 0.00, 0.00, 0.00, 0.00, 0.00, 0
96, -6344.65, 6224.54, -6493.36, -6369.17, -92551.51, -187500.02, -40118.83, 138640.83, 0.00, 0.00, 0.00, 0.00, 0.00, 0.00, 0.00, 0.00, 0
