%OpenBCI Raw EEG Data
%
%Sample Rate = 250.0 Hz
%First Column = SampleIndex
%Other Columns = EEG data in microvolts with optional columns at end being unscaled Aux data
0, 187500.00, 187500.00, 187500.00, 187500.00, 187500.00, 180594.47, -110772.42, 168231.72, -128.00, 288.00, 4000.00
1, 187500.00, 187500.00, 187500.00, 187500.00, 187500.00, 180617.31, -110825.58, 168257.33, 0.00, 0.00, 0.00
2, 187500.00, 187500.00, 187500.00, 187500.00, 187500.00, 180669.75, -110919.79, 168314.98, 0.00, 0.00, 0.00
3, 187500.00, 187500.00, 187500.00, 187500.00, 187500.00, 180654.70, -110890.78, 168298.23, 0.00, 0.00, 0.00
4, 187500.00, 187500.00, 187500.00, 187500.00, 187500.00, 180602.00, -110805.08, 168240.53, 0.00, 0.00, 0.00
5, 187500.00, 187500.00, 187500.00, 187500.00, 187500.00, 180609.02, -110832.91, 168249.02, 0.00, 0.00, 0.00
6, 187500.00, 187500.00, 187500.00, 187500.00, 187500.00, 180667.05, -110937.38, 168312.67, 0.00, 0.00, 0.00
7, 187500.00, 187500.00, 187500.00, 187500.00, 187500.00, 180669.88, -110936.09, 168315.02, -320.00, 448.00, 8000.00
8, 187500.00, 187500.00, 187500.00, 187500.00, 187500.00, 180615.75, -110845.74, 168255.66, 0.00, 0.00, 0.00
9, 187500.00, 187500.00, 187500.00, 187500.00, 187500.00, 180607.41, -110847.44, 168247.45, 0.00, 0.00, 0.00
10, 187500.00, 187500.00, 187500.00, 187500.00, 187500.00, 180662.19, -110950.23, 168307.72, 0.00, 0.00, 0.00
11, 187500.00, 187500.00, 187500.00, 187500.00, 187500.00, 180677.06, -110971.89, 168323.61, 0.00, 0.00, 0.00
12, 187500.00, 187500.00, 187500.00, 187500.00, 187500.00, 180627.75, -110886.60, 168269.20, 0.00, 0.00, 0.00
13, 187500.00, 187500.00, 187500.00, 187500.00, 187500.00, 180606.52, -110864.45, 168246.69, 0.00, 0.00, 0.00
14, 187500.00, 187500.00, 187500.00, 187500.00, 187500.00, 180653.63, -110958.44, 168299.23, 0.00, 0.00, 0.00
15, 187500.00, 187500.00, 187500.00, 187500.00, 187500.00, 180683.16, -111005.48, 168331.08, 0.00, 0.00, 0.00
16, 187500.00, 187500.00, 187500.00, 187500.00, 187500.00, 180640.16, -110929.06, 168283.55, 0.00, 0.00, 0.00
17, 187500.00, 187500.00, 187500.00, 187500.00, 187500.00, 180607.03, -110884.25, 168247.94, -304.00, 480.00, 8048.00
18, 187500.00, 187500.00, 187500.00, 187500.00, 187500.00, 180649.56, -110969.75, 168295.08, 0.00, 0.00, 0.00
19, 187500.00, 187500.00, 187500.00, 187500.00, 187500.00, 180689.64, -111037.67, 168338.83, 0.00, 0.00, 0.00
20, 187500.00, 187500.00, 187500.00, 187500.00, 187500.00, 180653.91, -110973.93, 168299.31, 0.00, 0.00, 0.00
21, 187500.00, 187500.00, 187500.00, 187500.00, 187500.00, 180610.56, -110909.45, 168252.27, 0.00, 0.00, 0.00
22, 187500.00, 187500.00, 187500.00, 187500.00, 187500.00, 180642.23, -110977.55, 168287.47, 0.00, 0.00, 0.00
23, 187500.00, 187500.00, 187500.00, 187500.00, 187500.00, 180687.81, -111059.66, 168337.75, 0.00, 0.00, 0.00
24, 187500.00, 187500.00, 187500.00, 187500.00, 187500.00, 180662.63, -111013.69, 168309.95, 0.00, 0.00, 0.00
25, 187500.00, 187500.00, 187500.00, 187500.00, 187500.00, 180613.44, -110935.59, 168256.22, 0.00, 0.00, 0.00
26, 187500.00, 187500.00, 187500.00, 187500.00, 187500.00, 180632.17, -110982.30, 168277.22, 0.00, 0.00, 0.00
27, 187500.00, 187500.00, 187500.00, 187500.00, 187500.00, 180688.17, -111081.44, 168338.56, -240.00, 464.00, 8064.00
28, 187500.00, 187500.00, 187500.00, 187500.00, 187500.00, 180680.39, -111062.22, 168329.39, 0.00, 0.00, 0.00
29, 187500.00, 187500.00, 187500.00, 187500.00, 187500.00, 180624.39, -110972.18, 168268.31, 0.00, 0.00, 0.00
30, 187500.00, 187500.00, 187500.00, 187500.00, 187500.00, 180627.70, -110993.71, 168272.84, 0.00, 0.00, 0.00
31, 187500.00, 187500.00, 187500.00, 187500.00, 187500.00, 180682.98, -111095.90, 168333.70, 0.00, 0.00, 0.00
32, 187500.00, 187500.00, 187500.00, 187500.00, 187500.00, 180688.95, -111100.39, 168339.61, 0.00, 0.00, 0.00
33, 187500.00, 187500.00, 187500.00, 187500.00, 187500.00, 180635.14, -111010.20, 168280.58, 0.00, 0.00, 0.00
34, 187500.00, 187500.00, 187500.00, 187500.00, 187500.00, 180625.72, -111008.15, 168270.94, 0.00, 0.00, 0.00
35, 187500.00, 187500.00, 187500.00, 187500.00, 187500.00, 180679.19, -111109.53, 168329.94, 0.00, 0.00, 0.00
36, 187500.00, 187500.00, 187500.00, 187500.00, 187500.00, 180696.28, -111136.18, 168348.39, 0.00, 0.00, 0.00
37, 187500.00, 187500.00, 187500.00, 187500.00, 187500.00, 180646.92, -111051.22, 168294.14, -240.00, 528.00, 8064.00
38, 187500.00, 187500.00, 187500.00, 187500.00, 187500.00, 180623.22, -111023.88, 168268.75, 0.00, 0.00, 0.00
39, 187500.00, 187500.00, 187500.00, 187500.00, 187500.00, 180672.47, -111119.19, 168323.06, 0.00, 0.00, 0.00
40, 187500.00, 187500.00, 187500.00, 187500.00, 187500.00, 180703.88, -111170.66, 168357.16, 0.00, 0.00, 0.00
41, 187500.00, 187500.00, 187500.00, 187500.00, 187500.00, 180660.61, -111095.12, 168309.56, 0.00, 0.00, 0.00
42, 187500.00, 187500.00, 187500.00, 187500.00, 187500.00, 180626.30, -111046.75, 168272.48, 0.00, 0.00, 0.00
43, 187500.00, 187500.00, 187500.00, 187500.00, 187500.00, 180663.89, -111125.83, 168314.42, 0.00, 0.00, 0.00
44, 187500.00, 187500.00, 187500.00, 187500.00, 187500.00, 180705.44, -111197.53, 168359.70, 0.00, 0.00, 0.00
45, 187500.00, 187500.00, 187500.00, 187500.00, 187500.00, 180673.25, -111138.91, 168324.08, 0.00, 0.00, 0.00
46, 187500.00, 187500.00, 187500.00, 187500.00, 187500.00, 180628.59, -111070.98, 168275.61, 0.00, 0.00, 0.00
47, 187500.00, 187500.00, 187500.00, 187500.00, 187500.00, 180656.50, -111133.41, 168306.95, 0.00, 0.00, 0.00
48, 187500.00, 187500.00, 187500.00, 187500.00, 187500.00, 180705.59, -111220.66, 168360.73, -256.00, 496.00, 8048.00
49, 187500.00, 187500.00, 187500.00, 187500.00, 187500.00, 180685.19, -111181.59, 168337.98, 0.00, 0.00, 0.00
50, 187500.00, 187500.00, 187500.00, 187500.00, 187500.00, 180633.19, -111099.19, 168281.30, 0.00, 0.00, 0.00
51, 187500.00, 187500.00, 187500.00, 187500.00, 187500.00, 180648.09, -111139.95, 168298.55, 0.00, 0.00, 0.00
52, 187500.00, 187500.00, 187500.00, 187500.00, 187500.00, 180703.59, -111239.82, 168359.39, 0.00, 0.00, 0.00
53, 187500.00, 187500.00, 187500.00, 187500.00, 187500.00, 180696.88, -111223.91, 168351.56, 0.00, 0.00, 0.00
54, 187500.00, 187500.00, 187500.00, 187500.00, 187500.00, 180643.23, -111135.35, 168292.63, 0.00, 0.00, 0.00
55, 187500.00, 187500.00, 187500.00, 187500.00, 187500.00, 180644.31, -111151.91, 168294.50, 0.00, 0.00, 0.00
56, 187500.00, 187500.00, 187500.00, 187500.00, 187500.00, 180698.83, -111253.93, 168354.66, 0.00, 0.00, 0.00
57, 187500.00, 187500.00, 187500.00, 187500.00, 187500.00, 180705.95, -111262.30, 168362.09, 0.00, 0.00, 0.00
58, 187500.00, 187500.00, 187500.00, 187500.00, 187500.00, 180654.06, -111174.02, 168305.13, -256.00, 496.00, 8000.00
59, 187500.00, 187500.00, 187500.00, 187500.00, 187500.00, 180639.48, -111164.09, 168289.94, 0.00, 0.00, 0.00
60, 187500.00, 187500.00, 187500.00, 187500.00, 187500.00, 180692.56, -111265.02, 168348.45, 0.00, 0.00, 0.00
61, 187500.00, 187500.00, 187500.00, 187500.00, 187500.00, 180715.44, -111299.91, 168372.94, 0.00, 0.00, 0.00
62, 187500.00, 187500.00, 187500.00, 187500.00, 187500.00, 180667.44, -111216.89, 168320.16, 0.00, 0.00, 0.00
63, 187500.00, 187500.00, 187500.00, 187500.00, 187500.00, 180639.55, -111182.65, 168290.25, 0.00, 0.00, 0.00
64, 187500.00, 187500.00, 187500.00, 187500.00, 187500.00, 180686.88, -111275.02, 168342.61, 0.00, 0.00, 0.00
65, 187500.00, 187500.00, 187500.00, 187500.00, 187500.00, 180722.47, -111333.34, 168381.25, 0.00, 0.00, 0.00
66, 187500.00, 187500.00, 187500.00, 187500.00, 187500.00, 180682.38, -111262.09, 168337.08, 0.00, 0.00, 0.00
67, 187500.00, 187500.00, 187500.00, 187500.00, 187500.00, 180642.55, -111205.98, 168294.14, 0.00, 0.00, 0.00
68, 187500.00, 187500.00, 187500.00, 187500.00, 187500.00, 180679.92, -111283.50, 168335.70, -256.00, 544.00, 8016.00
69, 187500.00, 187500.00, 187500.00, 187500.00, 187500.00, 180723.75, -111359.34, 168383.48, 0.00, 0.00, 0.00
70, 187500.00, 187500.00, 187500.00, 187500.00, 187500.00, 180695.25, -111305.96, 168351.75, 0.00, 0.00, 0.00
71, 187500.00, 187500.00, 187500.00, 187500.00, 187500.00, 180648.05, -111233.59, 168300.41, 0.00, 0.00, 0.00
72, 187500.00, 187500.00, 187500.00, 187500.00, 187500.00, 180672.91, -111290.94, 168328.39, 0.00, 0.00, 0.00
73, 187500.00, 187500.00, 187500.00, 187500.00, 187500.00, 180723.39, -111381.45, 168383.91, 0.00, 0.00, 0.00
74, 187500.00, 187500.00, 187500.00, 187500.00, 187500.00, 180707.97, -111349.57, 168366.44, 0.00, 0.00, 0.00
75, 187500.00, 187500.00, 187500.00, 187500.00, 187500.00, 180656.22, -111266.13, 168309.86, 0.00, 0.00, 0.00
76, 187500.00, 187500.00, 187500.00, 187500.00, 187500.00, 180665.77, -111299.30, 168321.27, 0.00, 0.00, 0.00
77, 187500.00, 187500.00, 187500.00, 187500.00, 187500.00, 180721.09, -111399.91, 168382.09, 0.00, 0.00, 0.00
78, 187500.00, 187500.00, 187500.00, 187500.00, 187500.00, 180717.41, -111389.42, 168377.81, -256.00, 512.00, 8048.00
79, 187500.00, 187500.00, 187500.00, 187500.00, 187500.00, 180663.78, -111300.09, 168318.83, 0.00, 0.00, 0.00
80, 187500.00, 187500.00, 187500.00, 187500.00, 187500.00, 180661.28, -111310.50, 168316.75, 0.00, 0.00, 0.00
81, 187500.00, 187500.00, 187500.00, 187500.00, 187500.00, 180716.47, -111413.43, 168377.52, 0.00, 0.00, 0.00
82, 187500.00, 187500.00, 187500.00, 187500.00, 187500.00, 180726.28, -111427.02, 168387.95, 0.00, 0.00, 0.00
83, 187500.00, 187500.00, 187500.00, 187500.00, 187500.00, 180675.98, -111340.49, 168332.56, 0.00, 0.00, 0.00
84, 187500.00, 187500.00, 187500.00, 187500.00, 187500.00, 180658.59, -111325.36, 168314.42, 0.00, 0.00, 0.00
85, 187500.00, 187500.00, 187500.00, 187500.00, 187500.00, 180709.59, -111423.87, 168370.88, 0.00, 0.00, 0.00
86, 187500.00, 187500.00, 187500.00, 187500.00, 187500.00, 180733.63, -111462.65, 168397.09, 0.00, 0.00, 0.00
87, 187500.00, 187500.00, 187500.00, 187500.00, 187500.00, 180686.13, -111380.59, 168344.81, 0.00, 0.00, 0.00
88, 187500.00, 187500.00, 187500.00, 187500.00, 187500.00, 180658.14, -111343.67, 168314.58, -256.00, 528.00, 8064.00
89, 187500.00, 187500.00, 187500.00, 187500.00, 187500.00, 180702.84, -111432.59, 168364.13, 0.00, 0.00, 0.00
90, 187500.00, 187500.00, 187500.00, 187500.00, 187500.00, 180739.08, -111493.90, 168403.61, 0.00, 0.00, 0.00
91, 187500.00, 187500.00, 187500.00, 187500.00, 187500.00, 180702.73, -111427.73, 168363.25, 0.00, 0.00, 0.00
92, 187500.00, 187500.00, 187500.00, 187500.00, 187500.00, 180661.80, -111368.16, 168318.91, 0.00, 0.00, 0.00
93, 187500.00, 187500.00, 187500.00, 187500.00, 187500.00, 180694.80, -111439.70, 168355.97, 0.00, 0.00, 0.00
94, 187500.00, 187500.00, 187500.00, 187500.00, 187500.00, 180740.80, -111519.94, 168406.34, 0.00, 0.00, 0.00
95, 187500.00, 187500.00, 187500.00, 187500.00, 187500.00, 180714.27, -111470.36, 168376.88, 0.00, 0.00, 0.00
96, 187500.00, 187500.00, 187500.00, 187500.00, 187500.00, 180665.91, -111394.88, 168324.09, 0.00, 0.00, 0.00
97, 187500.00, 187500.00, 187500.00, 187500.00, 187500.00, 180686.20, -111445.84, 168347.33, 0.00, 0.00, 0.00
98, 187500.00, 187500.00, 187500.00, 187500.00, 187500.00, 180738.45, -111539.65, 168404.77, 0.00, 0.00, 0.00
99, 187500.00, 187500.00, 187500.00, 187500.00, 187500.00, 180727.55, -111514.34, 168392.09, -256.00, 528.00, 8032.00
100, 187500.00, 187500.00, 187500.00, 187500.00, 187500.00, 180673.81, -111427.82, 168333.39, 0.00, 0.00, 0.00
101, 187500.00, 187500.00, 187500.00, 187500.00, 187500.00, 180680.09, -111455.38, 168341.27, 0.00, 0.00, 0.00
102, 187500.00, 187500.00, 187500.00, 187500.00, 187500.00, 180733.97, -111555.38, 168400.67, 0.00, 0.00, 0.00
103, 187500.00, 187500.00, 187500.00, 187500.00, 187500.00, 180735.97, -111552.91, 168402.17, 0.00, 0.00, 0.00
104, 187500.00, 187500.00, 187500.00, 187500.00, 187500.00, 180682.69, -111463.50, 168343.75, 0.00, 0.00, 0.00
105, 187500.00, 187500.00, 187500.00, 187500.00, 187500.00, 180677.08, -111468.41, 168338.41, 0.00, 0.00, 0.00
106, 187500.00, 187500.00, 187500.00, 187500.00, 187500.00, 180732.59, -111571.95, 168399.59, 0.00, 0.00, 0.00
107, 187500.00, 187500.00, 187500.00, 187500.00, 187500.00, 180747.08, -111592.78, 168415.16, 0.00, 0.00, 0.00
108, 187500.00, 187500.00, 187500.00, 187500.00, 187500.00, 180691.67, -111501.27, 168354.73, 0.00, 0.00, 0.00
109, 187500.00, 187500.00, 187500.00, 187500.00, 187500.00, 180672.30, -111481.42, 168334.09, -240.00, 512.00, 8016.00
110, 187500.00, 187500.00, 187500.00, 187500.00, 187500.00, 180723.89, -111579.95, 168390.97, 0.00, 0.00, 0.00
111, 187500.00, 187500.00, 187500.00, 187500.00, 187500.00, 180753.97, -111627.09, 168423.36, 0.00, 0.00, 0.00
112, 187500.00, 187500.00, 187500.00, 187500.00, 187500.00, 180709.78, -111549.22, 168374.55, 0.00, 0.00, 0.00
113, 187500.00, 187500.00, 187500.00, 187500.00, 187500.00, 180676.34, -111504.49, 168338.53, 0.00, 0.00, 0.00
114, 187500.00, 187500.00, 187500.00, 187500.00, 187500.00, 180718.92, -111590.09, 168385.86, 0.00, 0.00, 0.00
115, 187500.00, 187500.00, 187500.00, 187500.00, 187500.00, 180756.52, -111655.27, 168427.16, 0.00, 0.00, 0.00
116, 187500.00, 187500.00, 187500.00, 187500.00, 187500.00, 180722.86, -111593.34, 168389.77, 0.00, 0.00, 0.00
117, 187500.00, 187500.00, 187500.00, 187500.00, 187500.00, 180680.52, -111530.09, 168343.70, 0.00, 0.00, 0.00
118, 187500.00, 187500.00, 187500.00, 187500.00, 187500.00, 180709.27, -111595.75, 168376.16, 0.00, 0.00, 0.00
119, 187500.00, 187500.00, 187500.00, 187500.00, 187500.00, 180758.42, -111681.00, 168429.95, -304.00, 448.00, 8048.00
120, 187500.00, 187500.00, 187500.00, 187500.00, 187500.00, 180735.94, -111637.17, 168404.81, 0.00, 0.00, 0.00
121, 187500.00, 187500.00, 187500.00, 187500.00, 187500.00, 180685.19, -111557.75, 168349.53, 0.00, 0.00, 0.00
122, 187500.00, 187500.00, 187500.00, 187500.00, 187500.00, 180704.22, -111605.34, 168371.13, 0.00, 0.00, 0.00
123, 187500.00, 187500.00, 187500.00, 187500.00, 187500.00, 180758.73, -111702.66, 168430.88, 0.00, 0.00, 0.00
124, 187500.00, 187500.00, 187500.00, 187500.00, 187500.00, 180747.58, -111679.55, 168418.42, 0.00, 0.00, 0.00
125, 187500.00, 187500.00, 187500.00, 187500.00, 187500.00, 180694.14, -111592.24, 168359.95, 0.00, 0.00, 0.00
126, 187500.00, 187500.00, 187500.00, 187500.00, 187500.00, 180697.69, -111614.59, 168364.86, 0.00, 0.00, 0.00
127, 187500.00, 187500.00, 187500.00, 187500.00, 187500.00, 180751.53, -111715.18, 168424.25, 0.00, 0.00, 0.00
128, 187500.00, 187500.00, 187500.00, 187500.00, 187500.00, 180755.22, -111716.74, 168427.67, 0.00, 0.00, 0.00
129, 187500.00, 187500.00, 187500.00, 187500.00, 187500.00, 180701.64, -111626.87, 168369.03, -256.00, 448.00, 8064.00
130, 187500.00, 187500.00, 187500.00, 187500.00, 187500.00, 180690.63, -111623.91, 168357.92, 0.00, 0.00, 0.00
131, 187500.00, 187500.00, 187500.00, 187500.00, 187500.00, 180746.39, -111727.67, 168419.30, 0.00, 0.00, 0.00
132, 187500.00, 187500.00, 187500.00, 187500.00, 187500.00, 180763.33, -111753.63, 168437.58, 0.00, 0.00, 0.00
133, 187500.00, 187500.00, 187500.00, 187500.00, 187500.00, 180711.25, -111665.78, 168380.48, 0.00, 0.00, 0.00
134, 187500.00, 187500.00, 187500.00, 187500.00, 187500.00, 180687.72, -111639.23, 168355.48, 0.00, 0.00, 0.00
135, 187500.00, 187500.00, 187500.00, 187500.00, 187500.00, 180737.47, -111735.25, 168410.47, 0.00, 0.00, 0.00
136, 187500.00, 187500.00, 187500.00, 187500.00, 187500.00, 180768.91, -111786.13, 168444.38, 0.00, 0.00, 0.00
137, 187500.00, 187500.00, 187500.00, 187500.00, 187500.00, 180726.00, -111710.57, 168397.05, 0.00, 0.00, 0.00
138, 187500.00, 187500.00, 187500.00, 187500.00, 187500.00, 180690.58, -111661.53, 168358.98, 0.00, 0.00, 0.00
139, 187500.00, 187500.00, 187500.00, 187500.00, 187500.00, 180731.11, -111744.01, 168404.03, -272.00, 448.00, 8048.00
140, 187500.00, 187500.00, 187500.00, 187500.00, 187500.00, 180772.77, -111815.42, 168449.52, 0.00, 0.00, 0.00
141, 187500.00, 187500.00, 187500.00, 187500.00, 187500.00, 180740.52, -111756.30, 168413.75, 0.00, 0.00, 0.00
142, 187500.00, 187500.00, 187500.00, 187500.00, 187500.00, 180695.34, -111688.27, 168364.70, 0.00, 0.00, 0.00
143, 187500.00, 187500.00, 187500.00, 187500.00, 187500.00, 180721.48, -111749.42, 168394.33, 0.00, 0.00, 0.00
144, 187500.00, 187500.00, 187500.00, 187500.00, 187500.00, 180771.53, -111837.30, 168449.25, 0.00, 0.00, 0.00
145, 187500.00, 187500.00, 187500.00, 187500.00, 187500.00, 180753.59, -111800.18, 168428.86, 0.00, 0.00, 0.00
146, 187500.00, 187500.00, 187500.00, 187500.00, 187500.00, 180702.19, -111718.69, 168372.75, 0.00, 0.00, 0.00
147, 187500.00, 187500.00, 187500.00, 187500.00, 187500.00, 180718.16, -111761.02, 168391.00, 0.00, 0.00, 0.00
148, 187500.00, 187500.00, 187500.00, 187500.00, 187500.00, 180771.09, -111858.12, 168449.48, 0.00, 0.00, 0.00
149, 187500.00, 187500.00, 187500.00, 187500.00, 187500.00, 180764.42, -111841.66, 168441.64, 0.00, 0.00, 0.00
150, 187500.00, 187500.00, 187500.00, 187500.00, 187500.00, 180709.36, -111751.84, 168381.45, -272.00, 512.00, 8016.00
151, 187500.00, 187500.00, 187500.00, 187500.00, 187500.00, 180711.59, -111770.30, 168384.63, 0.00, 0.00, 0.00
152, 187500.00, 187500.00, 187500.00, 187500.00, 187500.00, 180767.63, -111873.54, 168446.30, 0.00, 0.00, 0.00
153, 187500.00, 187500.00, 187500.00, 187500.00, 187500.00, 180773.17, -111879.80, 168452.19, 0.00, 0.00, 0.00
154, 187500.00, 187500.00, 187500.00, 187500.00, 187500.00, 180722.14, -111792.11, 168395.88, 0.00, 0.00, 0.00
155, 187500.00, 187500.00, 187500.00, 187500.00, 187500.00, 180707.67, -111782.97, 168380.88, 0.00, 0.00, 0.00
156, 187500.00, 187500.00, 187500.00, 187500.00, 187500.00, 180760.14, -111883.42, 168438.94, 0.00, 0.00, 0.00
157, 187500.00, 187500.00, 187500.00, 187500.00, 187500.00, 180780.86, -111915.74, 168461.34, 0.00, 0.00, 0.00
158, 187500.00, 187500.00, 187500.00, 187500.00, 187500.00, 180731.42, -111831.00, 168407.02, 0.00, 0.00, 0.00
159, 187500.00, 187500.00, 187500.00, 187500.00, 187500.00, 180706.69, -111800.60, 168380.61, 0.00, 0.00, 0.00
160, 187500.00, 187500.00, 187500.00, 187500.00, 187500.00, 180753.36, -111892.74, 168432.41, -256.00, 496.00, 8064.00
161, 187500.00, 187500.00, 187500.00, 187500.00, 187500.00, 180786.73, -111948.30, 168468.69, 0.00, 0.00, 0.00
162, 187500.00, 187500.00, 187500.00, 187500.00, 187500.00, 180745.92, -111876.00, 168423.61, 0.00, 0.00, 0.00
163, 187500.00, 187500.00, 187500.00, 187500.00, 187500.00, 180708.70, -111822.80, 168383.39, 0.00, 0.00, 0.00
164, 187500.00, 187500.00, 187500.00, 187500.00, 187500.00, 180746.86, -111901.55, 168425.94, 0.00, 0.00, 0.00
165, 187500.00, 187500.00, 187500.00, 187500.00, 187500.00, 180790.83, -111977.23, 168473.94, 0.00, 0.00, 0.00
166, 187500.00, 187500.00, 187500.00, 187500.00, 187500.00, 180757.91, -111919.07, 168437.84, 0.00, 0.00, 0.00
167, 187500.00, 187500.00, 187500.00, 187500.00, 187500.00, 180711.61, -111847.95, 168387.53, 0.00, 0.00, 0.00
168, 187500.00, 187500.00, 187500.00, 187500.00, 187500.00, 180737.20, -111906.59, 168416.33, 0.00, 0.00, 0.00
169, 187500.00, 187500.00, 187500.00, 187500.00, 187500.00, 180788.69, -111997.66, 168472.69, 0.00, 0.00, 0.00
170, 187500.00, 187500.00, 187500.00, 187500.00, 187500.00, 180771.27, -111963.17, 168453.11, -288.00, 528.00, 8032.00
171, 187500.00, 187500.00, 187500.00, 187500.00, 187500.00, 180718.92, -111879.33, 168395.94, 0.00, 0.00, 0.00
172, 187500.00, 187500.00, 187500.00, 187500.00, 187500.00, 180730.56, -111915.02, 168409.53, 0.00, 0.00, 0.00
173, 187500.00, 187500.00, 187500.00, 187500.00, 187500.00, 180786.45, -112016.01, 168470.86, 0.00, 0.00, 0.00
174, 187500.00, 187500.00, 187500.00, 187500.00, 187500.00, 180783.09, -112005.33, 168466.81, 0.00, 0.00, 0.00
175, 187500.00, 187500.00, 187500.00, 187500.00, 187500.00, 180728.11, -111914.95, 168406.70, 0.00, 0.00, 0.00
176, 187500.00, 187500.00, 187500.00, 187500.00, 187500.00, 180725.67, -111926.29, 168404.94, 0.00, 0.00, 0.00
177, 187500.00, 187500.00, 187500.00, 187500.00, 187500.00, 180781.53, -112029.76, 168466.45, 0.00, 0.00, 0.00
178, 187500.00, 187500.00, 187500.00, 187500.00, 187500.00, 180790.98, -112042.45, 168476.58, 0.00, 0.00, 0.00
179, 187500.00, 187500.00, 187500.00, 187500.00, 187500.00, 180740.05, -111954.99, 168420.52, 0.00, 0.00, 0.00
180, 187500.00, 187500.00, 187500.00, 187500.00, 187500.00, 180724.83, -111942.61, 168404.56, -272.00, 576.00, 8080.00
181, 187500.00, 187500.00, 187500.00, 187500.00, 187500.00, 180775.78, -112041.20, 168461.06, 0.00, 0.00, 0.00
182, 187500.00, 187500.00, 187500.00, 187500.00, 187500.00, 180799.98, -112079.40, 168487.13, 0.00, 0.00, 0.00
183, 187500.00, 187500.00, 187500.00, 187500.00, 187500.00, 180752.88, -111997.70, 168435.36, 0.00, 0.00, 0.00
184, 187500.00, 187500.00, 187500.00, 187500.00, 187500.00, 180723.44, -111959.86, 168403.73, 0.00, 0.00, 0.00
185, 187500.00, 187500.00, 187500.00, 187500.00, 187500.00, 180766.22, -112047.10, 168451.48, 0.00, 0.00, 0.00
186, 187500.00, 187500.00, 187500.00, 187500.00, 187500.00, 180802.05, -112107.47, 168490.38, 0.00, 0.00, 0.00
187, 187500.00, 187500.00, 187500.00, 187500.00, 187500.00, 180765.25, -112040.64, 168449.73, 0.00, 0.00, 0.00
188, 187500.00, 187500.00, 187500.00, 187500.00, 187500.00, 180723.70, -111981.03, 168405.02, 0.00, 0.00, 0.00
189, 187500.00, 187500.00, 187500.00, 187500.00, 187500.00, 180758.33, -112054.48, 168443.67, 0.00, 0.00, 0.00
190, 187500.00, 187500.00, 187500.00, 187500.00, 187500.00, 180804.55, -112134.56, 168494.28, 0.00, 0.00, 0.00
191, 187500.00, 187500.00, 187500.00, 187500.00, 187500.00, 180777.58, -112084.05, 168464.22, -256.00, 544.00, 8064.00
192, 187500.00, 187500.00, 187500.00, 187500.00, 187500.00, 180729.36, -112009.10, 168411.69, 0.00, 0.00, 0.00
193, 187500.00, 187500.00, 187500.00, 187500.00, 187500.00, 180751.94, -112062.79, 168437.23, 0.00, 0.00, 0.00
194, 187500.00, 187500.00, 187500.00, 187500.00, 187500.00, 180805.58, -112157.56, 168496.08, 0.00, 0.00, 0.00
195, 187500.00, 187500.00, 187500.00, 187500.00, 187500.00, 180791.31, -112128.53, 168480.02, 0.00, 0.00, 0.00
196, 187500.00, 187500.00, 187500.00, 187500.00, 187500.00, 180738.86, -112043.52, 168422.64, 0.00, 0.00, 0.00
197, 187500.00, 187500.00, 187500.00, 187500.00, 187500.00, 180747.44, -112073.77, 168432.86, 0.00, 0.00, 0.00
198, 187500.00, 187500.00, 187500.00, 187500.00, 187500.00, 180800.42, -112172.77, 168491.42, 0.00, 0.00, 0.00
199, 187500.00, 187500.00, 187500.00, 187500.00, 187500.00, 180801.31, -112168.67, 168491.80, 0.00, 0.00, 0.00
200, 187500.00, 187500.00, 187500.00, 187500.00, 187500.00, 180749.05, -112080.38, 168434.42, 0.00, 0.00, 0.00
201, 187500.00, 187500.00, 187500.00, 187500.00, 187500.00, 180743.03, -112085.45, 168428.75, -224.00, 544.00, 8032.00
202, 187500.00, 187500.00, 187500.00, 187500.00, 187500.00, 180797.22, -112187.60, 168488.70, 0.00, 0.00, 0.00
203, 187500.00, 187500.00, 187500.00, 187500.00, 187500.00, 180812.58, -112208.80, 168504.91, 0.00, 0.00, 0.00
204, 187500.00, 187500.00, 187500.00, 187500.00, 187500.00, 180762.02, -112122.00, 168449.25, 0.00, 0.00, 0.00
205, 187500.00, 187500.00, 187500.00, 187500.00, 187500.00, 180741.88, -112102.02, 168428.06, 0.00, 0.00, 0.00
206, 187500.00, 187500.00, 187500.00, 187500.00, 187500.00, 180789.23, -112196.50, 168480.98, 0.00, 0.00, 0.00
207, 187500.00, 187500.00, 187500.00, 187500.00, 187500.00, 180816.02, -112239.86, 168510.09, 0.00, 0.00, 0.00
208, 187500.00, 187500.00, 187500.00, 187500.00, 187500.00, 180771.31, -112161.32, 168460.80, 0.00, 0.00, 0.00
209, 187500.00, 187500.00, 187500.00, 187500.00, 187500.00, 180739.31, -112118.45, 168426.17, 0.00, 0.00, 0.00
210, 187500.00, 187500.00, 187500.00, 187500.00, 187500.00, 180780.92, -112203.45, 168472.56, 0.00, 0.00, 0.00
211, 187500.00, 187500.00, 187500.00, 187500.00, 187500.00, 180819.86, -112269.32, 168514.95, -240.00, 528.00, 8048.00
212, 187500.00, 187500.00, 187500.00, 187500.00, 187500.00, 180784.69, -112205.59, 168476.06, 0.00, 0.00, 0.00
213, 187500.00, 187500.00, 187500.00, 187500.00, 187500.00, 180741.36, -112141.91, 168429.28, 0.00, 0.00, 0.00
214, 187500.00, 187500.00, 187500.00, 187500.00, 187500.00, 180773.61, -112211.38, 168465.41, 0.00, 0.00, 0.00
215, 187500.00, 187500.00, 187500.00, 187500.00, 187500.00, 180821.56, -112295.07, 168517.89, 0.00, 0.00, 0.00
216, 187500.00, 187500.00, 187500.00, 187500.00, 187500.00, 180797.23, -112249.02, 168490.81, 0.00, 0.00, 0.00
217, 187500.00, 187500.00, 187500.00, 187500.00, 187500.00, 180748.16, -112171.60, 168437.23, 0.00, 0.00, 0.00
218, 187500.00, 187500.00, 187500.00, 187500.00, 187500.00, 180765.56, -112218.09, 168457.45, 0.00, 0.00, 0.00
219, 187500.00, 187500.00, 187500.00, 187500.00, 187500.00, 180818.09, -112313.29, 168515.31, 0.00, 0.00, 0.00
220, 187500.00, 187500.00, 187500.00, 187500.00, 187500.00, 180807.86, -112290.45, 168503.58, 0.00, 0.00, 0.00
221, 187500.00, 187500.00, 187500.00, 187500.00, 187500.00, 180755.69, -112204.68, 168446.45, -224.00, 528.00, 8096.00
222, 187500.00, 187500.00, 187500.00, 187500.00, 187500.00, 180761.38, -112229.67, 168453.56, 0.00, 0.00, 0.00
223, 187500.00, 187500.00, 187500.00, 187500.00, 187500.00, 180816.02, -112330.97, 168513.78, 0.00, 0.00, 0.00
224, 187500.00, 187500.00, 187500.00, 187500.00, 187500.00, 180818.39, -112330.81, 168515.98, 0.00, 0.00, 0.00
225, 187500.00, 187500.00, 187500.00, 187500.00, 187500.00, 180764.00, -112240.22, 168456.39, 0.00, 0.00, 0.00
226, 187500.00, 187500.00, 187500.00, 187500.00, 187500.00, 180757.45, -112242.27, 168449.92, 0.00, 0.00, 0.00
227, 187500.00, 187500.00, 187500.00, 187500.00, 187500.00, 180811.44, -112344.13, 168509.42, 0.00, 0.00, 0.00
228, 187500.00, 187500.00, 187500.00, 187500.00, 187500.00, 180824.72, -112365.92, 168524.02, 0.00, 0.00, 0.00
229, 187500.00, 187500.00, 187500.00, 187500.00, 187500.00, 180775.61, -112280.99, 168470.02, 0.00, 0.00, 0.00
230, 187500.00, 187500.00, 187500.00, 187500.00, 187500.00, 180753.91, -112256.73, 168446.86, 0.00, 0.00, 0.00
231, 187500.00, 187500.00, 187500.00, 187500.00, 187500.00, 180801.75, -112350.99, 168499.98, -272.00, 528.00, 8064.00
232, 187500.00, 187500.00, 187500.00, 187500.00, 187500.00, 180831.89, -112400.23, 168532.73, 0.00, 0.00, 0.00
233, 187500.00, 187500.00, 187500.00, 187500.00, 187500.00, 180789.39, -112324.93, 168485.81, 0.00, 0.00, 0.00
234, 187500.00, 187500.00, 187500.00, 187500.00, 187500.00, 180754.95, -112277.37, 168448.78, 0.00, 0.00, 0.00
235, 187500.00, 187500.00, 187500.00, 187500.00, 187500.00, 180793.33, -112357.95, 168491.83, 0.00, 0.00, 0.00
236, 187500.00, 187500.00, 187500.00, 187500.00, 187500.00, 180833.63, -112427.39, 168535.88, 0.00, 0.00, 0.00
237, 187500.00, 187500.00, 187500.00, 187500.00, 187500.00, 180800.23, -112366.87, 168498.98, 0.00, 0.00, 0.00
238, 187500.00, 187500.00, 187500.00, 187500.00, 187500.00, 180756.89, -112300.97, 168451.81, 0.00, 0.00, 0.00
239, 187500.00, 187500.00, 187500.00, 187500.00, 187500.00, 180786.58, -112366.17, 168485.19, 0.00, 0.00, 0.00
240, 187500.00, 187500.00, 187500.00, 187500.00, 187500.00, 180834.06, -112451.04, 168537.33, 0.00, 0.00, 0.00
241, 187500.00, 187500.00, 187500.00, 187500.00, 187500.00, 180812.86, -112410.41, 168513.73, 0.00, 0.00, 0.00
242, 187500.00, 187500.00, 187500.00, 187500.00, 187500.00, 180762.48, -112330.30, 168458.92, -288.00, 528.00, 8080.00
243, 187500.00, 187500.00, 187500.00, 187500.00, 187500.00, 180779.52, -112374.04, 168478.28, 0.00, 0.00, 0.00
244, 187500.00, 187500.00, 187500.00, 187500.00, 187500.00, 180834.53, -112472.92, 168538.72, 0.00, 0.00, 0.00
245, 187500.00, 187500.00, 187500.00, 187500.00, 187500.00, 180826.36, -112454.59, 168529.39, 0.00, 0.00, 0.00
246, 187500.00, 187500.00, 187500.00, 187500.00, 187500.00, 180773.55, -112367.22, 168471.44, 0.00, 0.00, 0.00
247, 187500.00, 187500.00, 187500.00, 187500.00, 187500.00, 180775.83, -112386.29, 168474.84, 0.00, 0.00, 0.00
248, 187500.00, 187500.00, 187500.00, 187500.00, 187500.00, 180831.89, -112489.64, 168536.63, 0.00, 0.00, 0.00
249, 187500.00, 187500.00, 187500.00, 187500.00, 187500.00, 180837.61, -112495.34, 168542.42, 0.00, 0.00, 0.00
250, 187500.00, 187500.00, 187500.00, 187500.00, 187500.00, 180783.63, -112404.95, 168483.48, 0.00, 0.00, 0.00
251, 187500.00, 187500.00, 187500.00, 187500.00, 187500.00, 180768.92, -112396.16, 168468.38, 0.00, 0.00, 0.00
252, 187500.00, 187500.00, 187500.00, 187500.00, 187500.00, 180820.38, -112495.74, 168525.42, -240.00, 544.00, 8048.00
253, 187500.00, 187500.00, 187500.00, 187500.00, 187500.00, 180841.56, -112527.95, 168548.33, 0.00, 0.00, 0.00
254, 187500.00, 187500.00, 187500.00, 187500.00, 187500.00, 180793.95, -112444.96, 168495.89, 0.00, 0.00, 0.00
255, 187500.00, 187500.00, 187500.00, 187500.00, 187500.00, 180768.70, -112414.54, 168468.92, 0.00, 0.00, 0.00
0, 187500.00, 187500.00, 187500.00, 187500.00, 187500.00, 180814.25, -112505.52, 168519.61, 0.00, 0.00, 0.00
1, 187500.00, 187500.00, 187500.00, 187500.00, 187500.00, 180846.81, -112559.58, 168555.02, 0.00, 0.00, 0.00
2, 187500.00, 187500.00, 187500.00, 187500.00, 187500.00, 180805.94, -112487.07, 168509.86, 0.00, 0.00, 0.00
3, 187500.00, 187500.00, 187500.00, 187500.00, 187500.00, 180768.81, -112434.57, 168469.78, 0.00, 0.00, 0.00
4, 187500.00, 187500.00, 187500.00, 187500.00, 187500.00, 180808.42, -112515.03, 168513.73, 0.00, 0.00, 0.00
5, 187500.00, 187500.00, 187500.00, 187500.00, 187500.00, 180850.08, -112588.05, 168559.48, 0.00, 0.00, 0.00
6, 187500.00, 187500.00, 187500.00, 187500.00, 187500.00, 180820.27, -112532.67, 168526.58, -224.00, 480.00, 8032.00
7, 187500.00, 187500.00, 187500.00, 187500.00, 187500.00, 180776.28, -112464.30, 168478.59, 0.00, 0.00, 0.00
8, 187500.00, 187500.00, 187500.00, 187500.00, 187500.00, 180801.47, -112522.95, 168507.09, 0.00, 0.00, 0.00
9, 187500.00, 187500.00, 187500.00, 187500.00, 187500.00, 180849.08, -112609.78, 168559.70, 0.00, 0.00, 0.00
10, 187500.00, 187500.00, 187500.00, 187500.00, 187500.00, 180831.59, -112574.69, 168540.02, 0.00, 0.00, 0.00
11, 187500.00, 187500.00, 187500.00, 187500.00, 187500.00, 180780.64, -112492.64, 168484.30, 0.00, 0.00, 0.00
12, 187500.00, 187500.00, 187500.00, 187500.00, 187500.00, 180794.41, -112531.13, 168500.16, 0.00, 0.00, 0.00
13, 187500.00, 187500.00, 187500.00, 187500.00, 187500.00, 180849.14, -112630.68, 168560.36, 0.00, 0.00, 0.00
14, 187500.00, 187500.00, 187500.00, 187500.00, 187500.00, 180843.53, -112617.25, 168554.13, 0.00, 0.00, 0.00
15, 187500.00, 187500.00, 187500.00, 187500.00, 187500.00, 180788.33, -112526.75, 168493.86, 0.00, 0.00, 0.00
16, 187500.00, 187500.00, 187500.00, 187500.00, 187500.00, 180788.19, -112540.76, 168494.38, -256.00, 496.00, 8000.00
17, 187500.00, 187500.00, 187500.00, 187500.00, 187500.00, 180843.42, -112643.71, 168555.34, 0.00, 0.00, 0.00
18, 187500.00, 187500.00, 187500.00, 187500.00, 187500.00, 180851.67, -112654.55, 168564.17, 0.00, 0.00, 0.00
19, 187500.00, 187500.00, 187500.00, 187500.00, 187500.00, 180798.09, -112564.52, 168505.53, 0.00, 0.00, 0.00
20, 187500.00, 187500.00, 187500.00, 187500.00, 187500.00, 180781.22, -112551.09, 168487.98, 0.00, 0.00, 0.00
21, 187500.00, 187500.00, 187500.00, 187500.00, 187500.00, 180833.34, -112650.87, 168545.63, 0.00, 0.00, 0.00
22, 187500.00, 187500.00, 187500.00, 187500.00, 187500.00, 180856.11, -112687.14, 168570.34, 0.00, 0.00, 0.00
23, 187500.00, 187500.00, 187500.00, 187500.00, 187500.00, 180810.23, -112606.56, 168519.83, 0.00, 0.00, 0.00
24, 187500.00, 187500.00, 187500.00, 187500.00, 187500.00, 180782.20, -112570.76, 168489.80, 0.00, 0.00, 0.00
25, 187500.00, 187500.00, 187500.00, 187500.00, 187500.00, 180827.23, -112660.41, 168539.72, 0.00, 0.00, 0.00
26, 187500.00, 187500.00, 187500.00, 187500.00, 187500.00, 180862.84, -112719.95, 168578.55, -288.00, 512.00, 7984.00
27, 187500.00, 187500.00, 187500.00, 187500.00, 187500.00, 180827.08, -112653.80, 168538.72, 0.00, 0.00, 0.00
28, 187500.00, 187500.00, 187500.00, 187500.00, 187500.00, 180787.00, -112596.26, 168495.47, 0.00, 0.00, 0.00
29, 187500.00, 187500.00, 187500.00, 187500.00, 187500.00, 180821.92, -112670.54, 168534.61, 0.00, 0.00, 0.00
30, 187500.00, 187500.00, 187500.00, 187500.00, 187500.00, 180867.11, -112749.03, 168584.05, 0.00, 0.00, 0.00
31, 187500.00, 187500.00, 187500.00, 187500.00, 187500.00, 180839.75, -112697.76, 168553.72, 0.00, 0.00, 0.00
32, 187500.00, 187500.00, 187500.00, 187500.00, 187500.00, 180789.75, -112621.48, 168499.47, 0.00, 0.00, 0.00
33, 187500.00, 187500.00, 187500.00, 187500.00, 187500.00, 180813.00, -112676.41, 168525.86, 0.00, 0.00, 0.00
34, 187500.00, 187500.00, 187500.00, 187500.00, 187500.00, 180865.22, -112769.38, 168583.27, 0.00, 0.00, 0.00
35, 187500.00, 187500.00, 187500.00, 187500.00, 187500.00, 180850.22, -112738.98, 168566.39, 0.00, 0.00, 0.00
36, 187500.00, 187500.00, 187500.00, 187500.00, 187500.00, 180797.75, -112654.15, 168509.08, 0.00, 0.00, 0.00
37, 187500.00, 187500.00, 187500.00, 187500.00, 187500.00, 180807.70, -112686.43, 168520.80, -272.00, 480.00, 7984.00
38, 187500.00, 187500.00, 187500.00, 187500.00, 187500.00, 180862.53, -112787.01, 168581.25, 0.00, 0.00, 0.00
39, 187500.00, 187500.00, 187500.00, 187500.00, 187500.00, 180860.78, -112779.70, 168578.97, 0.00, 0.00, 0.00
40, 187500.00, 187500.00, 187500.00, 187500.00, 187500.00, 180804.80, -112687.75, 168517.89, 0.00, 0.00, 0.00
41, 187500.00, 187500.00, 187500.00, 187500.00, 187500.00, 180802.88, -112697.58, 168516.41, 0.00, 0.00, 0.00
42, 187500.00, 187500.00, 187500.00, 187500.00, 187500.00, 180856.66, -112799.41, 168575.91, 0.00, 0.00, 0.00
43, 187500.00, 187500.00, 187500.00, 187500.00, 187500.00, 180869.38, -112817.30, 168589.50, 0.00, 0.00, 0.00
44, 187500.00, 187500.00, 187500.00, 187500.00, 187500.00, 180817.09, -112728.80, 168532.28, 0.00, 0.00, 0.00
45, 187500.00, 187500.00, 187500.00, 187500.00, 187500.00, 180798.52, -112710.88, 168512.61, 0.00, 0.00, 0.00
46, 187500.00, 187500.00, 187500.00, 187500.00, 187500.00, 180849.59, -112809.18, 168569.08, 0.00, 0.00, 0.00
47, 187500.00, 187500.00, 187500.00, 187500.00, 187500.00, 180877.03, -112852.63, 168598.89, -256.00, 528.00, 8032.00
48, 187500.00, 187500.00, 187500.00, 187500.00, 187500.00, 180831.66, -112773.22, 168548.98, 0.00, 0.00, 0.00
49, 187500.00, 187500.00, 187500.00, 187500.00, 187500.00, 180801.16, -112732.56, 168516.08, 0.00, 0.00, 0.00
50, 187500.00, 187500.00, 187500.00, 187500.00, 187500.00, 180843.36, -112818.39, 168563.08, 0.00, 0.00, 0.00
51, 187500.00, 187500.00, 187500.00, 187500.00, 187500.00, 180881.06, -112882.45, 168604.30, 0.00, 0.00, 0.00
52, 187500.00, 187500.00, 187500.00, 187500.00, 187500.00, 180843.67, -112816.13, 168563.16, 0.00, 0.00, 0.00
53, 187500.00, 187500.00, 187500.00, 187500.00, 187500.00, 180802.58, -112755.05, 168518.53, 0.00, 0.00, 0.00
54, 187500.00, 187500.00, 187500.00, 187500.00, 187500.00, 180835.52, -112825.70, 168555.53, 0.00, 0.00, 0.00
55, 187500.00, 187500.00, 187500.00, 187500.00, 187500.00, 180882.84, -112908.18, 168607.30, 0.00, 0.00, 0.00
56, 187500.00, 187500.00, 187500.00, 187500.00, 187500.00, 180857.45, -112860.75, 168579.27, 0.00, 0.00, 0.00
57, 187500.00, 187500.00, 187500.00, 187500.00, 187500.00, 180806.73, -112782.14, 168524.08, -240.00, 512.00, 8016.00
58, 187500.00, 187500.00, 187500.00, 187500.00, 187500.00, 180826.86, -112831.73, 168547.03, 0.00, 0.00, 0.00
59, 187500.00, 187500.00, 187500.00, 187500.00, 187500.00, 180880.34, -112927.49, 168605.81, 0.00, 0.00, 0.00
60, 187500.00, 187500.00, 187500.00, 187500.00, 187500.00, 180871.06, -112905.16, 168595.05, 0.00, 0.00, 0.00
61, 187500.00, 187500.00, 187500.00, 187500.00, 187500.00, 180814.91, -112815.60, 168534.00, 0.00, 0.00, 0.00
62, 187500.00, 187500.00, 187500.00, 187500.00, 187500.00, 180818.98, -112839.54, 168539.52, 0.00, 0.00, 0.00
63, 187500.00, 187500.00, 187500.00, 187500.00, 187500.00, 180875.56, -112942.63, 168601.80, 0.00, 0.00, 0.00
64, 187500.00, 187500.00, 187500.00, 187500.00, 187500.00, 180878.06, -112942.02, 168604.19, 0.00, 0.00, 0.00
65, 187500.00, 187500.00, 187500.00, 187500.00, 187500.00, 180823.70, -112851.48, 168544.67, 0.00, 0.00, 0.00
66, 187500.00, 187500.00, 187500.00, 187500.00, 187500.00, 180816.36, -112853.35, 168537.44, 0.00, 0.00, 0.00
67, 187500.00, 187500.00, 187500.00, 187500.00, 187500.00, 180870.63, -112955.61, 168597.42, -240.00, 480.00, 8032.00
68, 187500.00, 187500.00, 187500.00, 187500.00, 187500.00, 180887.09, -112979.95, 168615.27, 0.00, 0.00, 0.00
69, 187500.00, 187500.00, 187500.00, 187500.00, 187500.00, 180835.52, -112892.38, 168558.64, 0.00, 0.00, 0.00
70, 187500.00, 187500.00, 187500.00, 187500.00, 187500.00, 180812.44, -112867.39, 168534.36, 0.00, 0.00, 0.00
71, 187500.00, 187500.00, 187500.00, 187500.00, 187500.00, 180863.30, -112964.82, 168590.53, 0.00, 0.00, 0.00
72, 187500.00, 187500.00, 187500.00, 187500.00, 187500.00, 180891.36, -113011.31, 168621.08, 0.00, 0.00, 0.00
73, 187500.00, 187500.00, 187500.00, 187500.00, 187500.00, 180846.89, -112933.80, 168572.33, 0.00, 0.00, 0.00
74, 187500.00, 187500.00, 187500.00, 187500.00, 187500.00, 180812.13, -112886.37, 168534.89, 0.00, 0.00, 0.00
75, 187500.00, 187500.00, 187500.00, 187500.00, 187500.00, 180852.98, -112969.71, 168580.45, 0.00, 0.00, 0.00
76, 187500.00, 187500.00, 187500.00, 187500.00, 187500.00, 180893.73, -113039.18, 168625.00, 0.00, 0.00, 0.00
77, 187500.00, 187500.00, 187500.00, 187500.00, 187500.00, 180859.20, -112977.09, 168586.89, -240.00, 512.00, 8032.00
78, 187500.00, 187500.00, 187500.00, 187500.00, 187500.00, 180815.06, -112910.99, 168539.05, 0.00, 0.00, 0.00
79, 187500.00, 187500.00, 187500.00, 187500.00, 187500.00, 180844.83, -112976.58, 168572.47, 0.00, 0.00, 0.00
80, 187500.00, 187500.00, 187500.00, 187500.00, 187500.00, 180894.63, -113063.48, 168627.13, 0.00, 0.00, 0.00
81, 187500.00, 187500.00, 187500.00, 187500.00, 187500.00, 180873.64, -113022.46, 168603.58, 0.00, 0.00, 0.00
82, 187500.00, 187500.00, 187500.00, 187500.00, 187500.00, 180823.06, -112942.38, 168548.42, 0.00, 0.00, 0.00
83, 187500.00, 187500.00, 187500.00, 187500.00, 187500.00, 180838.33, -112985.12, 168566.28, 0.00, 0.00, 0.00
84, 187500.00, 187500.00, 187500.00, 187500.00, 187500.00, 180889.78, -113080.17, 168623.14, 0.00, 0.00, 0.00
85, 187500.00, 187500.00, 187500.00, 187500.00, 187500.00, 180881.98, -113061.45, 168614.14, 0.00, 0.00, 0.00
86, 187500.00, 187500.00, 187500.00, 187500.00, 187500.00, 180827.75, -112972.84, 168554.97, 0.00, 0.00, 0.00
87, 187500.00, 187500.00, 187500.00, 187500.00, 187500.00, 180831.23, -112993.70, 168559.70, 0.00, 0.00, 0.00
88, 187500.00, 187500.00, 187500.00, 187500.00, 187500.00, 180888.17, -113097.74, 168622.30, -240.00, 512.00, 8000.00
89, 187500.00, 187500.00, 187500.00, 187500.00, 187500.00, 180894.58, -113103.55, 168628.75, 0.00, 0.00, 0.00
90, 187500.00, 187500.00, 187500.00, 187500.00, 187500.00, 180839.39, -113011.82, 168568.38, 0.00, 0.00, 0.00
91, 187500.00, 187500.00, 187500.00, 187500.00, 187500.00, 180828.16, -113007.31, 168557.03, 0.00, 0.00, 0.00
92, 187500.00, 187500.00, 187500.00, 187500.00, 187500.00, 180881.28, -113108.41, 168615.78, 0.00, 0.00, 0.00
93, 187500.00, 187500.00, 187500.00, 187500.00, 187500.00, 180900.75, -113138.16, 168636.78, 0.00, 0.00, 0.00
94, 187500.00, 187500.00, 187500.00, 187500.00, 187500.00, 180852.09, -113053.94, 168583.20, 0.00, 0.00, 0.00
95, 187500.00, 187500.00, 187500.00, 187500.00, 187500.00, 180827.27, -113024.66, 168556.75, 0.00, 0.00, 0.00
96, 187500.00, 187500.00, 187500.00, 187500.00, 187500.00, 180876.33, -113119.41, 168611.16, 0.00, 0.00, 0.00
97, 187500.00, 187500.00, 187500.00, 187500.00, 187500.00, 180907.72, -113171.75, 168645.56, 0.00, 0.00, 0.00
98, 187500.00, 187500.00, 187500.00, 187500.00, 187500.00, 180864.81, -113096.83, 168598.33, -224.00, 480.00, 8016.00
99, 187500.00, 187500.00, 187500.00, 187500.00, 187500.00, 180829.36, -113046.47, 168560.00, 0.00, 0.00, 0.00
100, 187500.00, 187500.00, 187500.00, 187500.00, 187500.00, 180867.30, -113125.44, 168602.31, 0.00, 0.00, 0.00
101, 187500.00, 187500.00, 187500.00, 187500.00, 187500.00, 180910.70, -113199.76, 168649.73, 0.00, 0.00, 0.00
102, 187500.00, 187500.00, 187500.00, 187500.00, 187500.00, 180880.91, -113144.19, 168616.75, 0.00, 0.00, 0.00
103, 187500.00, 187500.00, 187500.00, 187500.00, 187500.00, 180834.28, -113073.56, 168566.30, 0.00, 0.00, 0.00
104, 187500.00, 187500.00, 187500.00, 187500.00, 187500.00, 180861.97, -113135.12, 168597.45, 0.00, 0.00, 0.00
105, 187500.00, 187500.00, 187500.00, 187500.00, 187500.00, 180912.78, -113224.68, 168653.11, 0.00, 0.00, 0.00
106, 187500.00, 187500.00, 187500.00, 187500.00, 187500.00, 180893.13, -113187.04, 168631.33, 0.00, 0.00, 0.00
107, 187500.00, 187500.00, 187500.00, 187500.00, 187500.00, 180838.70, -113101.74, 168572.17, 0.00, 0.00, 0.00
108, 187500.00, 187500.00, 187500.00, 187500.00, 187500.00, 180851.94, -113140.10, 168587.53, -256.00, 496.00, 8064.00
109, 187500.00, 187500.00, 187500.00, 187500.00, 187500.00, 180908.33, -113241.35, 168649.45, 0.00, 0.00, 0.00
110, 187500.00, 187500.00, 187500.00, 187500.00, 187500.00, 180902.25, -113226.69, 168642.52, 0.00, 0.00, 0.00
111, 187500.00, 187500.00, 187500.00, 187500.00, 187500.00, 180847.00, -113136.32, 168582.28, 0.00, 0.00, 0.00
112, 187500.00, 187500.00, 187500.00, 187500.00, 187500.00, 180849.28, -113153.40, 168585.41, 0.00, 0.00, 0.00
113, 187500.00, 187500.00, 187500.00, 187500.00, 187500.00, 180905.80, -113257.47, 168647.64, 0.00, 0.00, 0.00
114, 187500.00, 187500.00, 187500.00, 187500.00, 187500.00, 180911.97, -113265.72, 168654.39, 0.00, 0.00, 0.00
115, 187500.00, 187500.00, 187500.00, 187500.00, 187500.00, 180858.11, -113175.35, 168595.45, 0.00, 0.00, 0.00
116, 187500.00, 187500.00, 187500.00, 187500.00, 187500.00, 180844.03, -113165.16, 168580.73, 0.00, 0.00, 0.00
117, 187500.00, 187500.00, 187500.00, 187500.00, 187500.00, 180896.08, -113264.87, 168638.30, 0.00, 0.00, 0.00
118, 187500.00, 187500.00, 187500.00, 187500.00, 187500.00, 180918.41, -113300.07, 168662.45, -224.00, 528.00, 8064.00
119, 187500.00, 187500.00, 187500.00, 187500.00, 187500.00, 180869.34, -113216.05, 168608.81, 0.00, 0.00, 0.00
120, 187500.00, 187500.00, 187500.00, 187500.00, 187500.00, 180842.13, -113181.61, 168579.72, 0.00, 0.00, 0.00
121, 187500.00, 187500.00, 187500.00, 187500.00, 187500.00, 180889.78, -113274.16, 168632.38, 0.00, 0.00, 0.00
122, 187500.00, 187500.00, 187500.00, 187500.00, 187500.00, 180924.31, -113332.10, 168670.11, 0.00, 0.00, 0.00
123, 187500.00, 187500.00, 187500.00, 187500.00, 187500.00, 180883.56, -113260.73, 168625.42, 0.00, 0.00, 0.00
124, 187500.00, 187500.00, 187500.00, 187500.00, 187500.00, 180845.25, -113205.32, 168583.94, 0.00, 0.00, 0.00
125, 187500.00, 187500.00, 187500.00, 187500.00, 187500.00, 180878.98, -113278.73, 168622.06, 0.00, 0.00, 0.00
126, 187500.00, 187500.00, 187500.00, 187500.00, 187500.00, 180925.19, -113357.67, 168672.47, 0.00, 0.00, 0.00
127, 187500.00, 187500.00, 187500.00, 187500.00, 187500.00, 180898.05, -113306.27, 168642.28, 0.00, 0.00, 0.00
128, 187500.00, 187500.00, 187500.00, 187500.00, 187500.00, 180848.94, -113231.23, 168588.94, -208.00, 528.00, 8048.00
129, 187500.00, 187500.00, 187500.00, 187500.00, 187500.00, 180871.41, -113285.74, 168614.53, 0.00, 0.00, 0.00
130, 187500.00, 187500.00, 187500.00, 187500.00, 187500.00, 180925.16, -113379.87, 168673.45, 0.00, 0.00, 0.00
131, 187500.00, 187500.00, 187500.00, 187500.00, 187500.00, 180911.77, -113350.52, 168658.13, 0.00, 0.00, 0.00
132, 187500.00, 187500.00, 187500.00, 187500.00, 187500.00, 180858.19, -113264.96, 168599.81, 0.00, 0.00, 0.00
133, 187500.00, 187500.00, 187500.00, 187500.00, 187500.00, 180868.77, -113298.24, 168612.34, 0.00, 0.00, 0.00
134, 187500.00, 187500.00, 187500.00, 187500.00, 187500.00, 180923.33, -113398.42, 168672.58, 0.00, 0.00, 0.00
135, 187500.00, 187500.00, 187500.00, 187500.00, 187500.00, 180921.14, -113390.09, 168669.77, 0.00, 0.00, 0.00
136, 187500.00, 187500.00, 187500.00, 187500.00, 187500.00, 180867.38, -113300.48, 168610.98, 0.00, 0.00, 0.00
137, 187500.00, 187500.00, 187500.00, 187500.00, 187500.00, 180863.83, -113309.21, 168607.89, 0.00, 0.00, 0.00
138, 187500.00, 187500.00, 187500.00, 187500.00, 187500.00, 180916.63, -113409.77, 168666.38, 0.00, 0.00, 0.00
139, 187500.00, 187500.00, 187500.00, 187500.00, 187500.00, 180928.22, -113425.91, 168678.86, -256.00, 560.00, 8096.00
140, 187500.00, 187500.00, 187500.00, 187500.00, 187500.00, 180876.91, -113338.41, 168622.58, 0.00, 0.00, 0.00
141, 187500.00, 187500.00, 187500.00, 187500.00, 187500.00, 180856.61, -113319.38, 168601.42, 0.00, 0.00, 0.00
142, 187500.00, 187500.00, 187500.00, 187500.00, 187500.00, 180907.80, -113417.82, 168658.08, 0.00, 0.00, 0.00
143, 187500.00, 187500.00, 187500.00, 187500.00, 187500.00, 180935.27, -113460.73, 168687.72, 0.00, 0.00, 0.00
144, 187500.00, 187500.00, 187500.00, 187500.00, 187500.00, 180890.03, -113381.27, 168637.98, 0.00, 0.00, 0.00
145, 187500.00, 187500.00, 187500.00, 187500.00, 187500.00, 180858.69, -113340.30, 168604.45, 0.00, 0.00, 0.00
146, 187500.00, 187500.00, 187500.00, 187500.00, 187500.00, 180903.02, -113428.44, 168653.63, 0.00, 0.00, 0.00
147, 187500.00, 187500.00, 187500.00, 187500.00, 187500.00, 180939.41, -113490.62, 168693.44, 0.00, 0.00, 0.00
148, 187500.00, 187500.00, 187500.00, 187500.00, 187500.00, 180903.02, -113425.02, 168653.31, 0.00, 0.00, 0.00
149, 187500.00, 187500.00, 187500.00, 187500.00, 187500.00, 180860.23, -113362.77, 168607.20, -224.00, 496.00, 8000.00
150, 187500.00, 187500.00, 187500.00, 187500.00, 187500.00, 180894.34, -113434.88, 168645.25, 0.00, 0.00, 0.00
151, 187500.00, 187500.00, 187500.00, 187500.00, 187500.00, 180939.84, -113515.34, 168695.38, 0.00, 0.00, 0.00
152, 187500.00, 187500.00, 187500.00, 187500.00, 187500.00, 180914.80, -113467.64, 168667.53, 0.00, 0.00, 0.00
153, 187500.00, 187500.00, 187500.00, 187500.00, 187500.00, 180866.88, -113392.05, 168615.27, 0.00, 0.00, 0.00
154, 187500.00, 187500.00, 187500.00, 187500.00, 187500.00, 180886.50, -113441.63, 168637.77, 0.00, 0.00, 0.00
155, 187500.00, 187500.00, 187500.00, 187500.00, 187500.00, 180938.92, -113535.99, 168695.42, 0.00, 0.00, 0.00
156, 187500.00, 187500.00, 187500.00, 187500.00, 187500.00, 180926.66, -113510.16, 168681.56, 0.00, 0.00, 0.00
157, 187500.00, 187500.00, 187500.00, 187500.00, 187500.00, 180874.72, -113424.99, 168624.66, 0.00, 0.00, 0.00
158, 187500.00, 187500.00, 187500.00, 187500.00, 187500.00, 180880.72, -113451.38, 168632.38, 0.00, 0.00, 0.00
159, 187500.00, 187500.00, 187500.00, 187500.00, 187500.00, 180935.78, -113552.76, 168693.13, -256.00, 496.00, 8000.00
160, 187500.00, 187500.00, 187500.00, 187500.00, 187500.00, 180936.77, -113550.08, 168693.92, 0.00, 0.00, 0.00
161, 187500.00, 187500.00, 187500.00, 187500.00, 187500.00, 180882.45, -113459.55, 168634.42, 0.00, 0.00, 0.00
162, 187500.00, 187500.00, 187500.00, 187500.00, 187500.00, 180873.58, -113460.38, 168625.75, 0.00, 0.00, 0.00
163, 187500.00, 187500.00, 187500.00, 187500.00, 187500.00, 180929.67, -113564.54, 168687.58, 0.00, 0.00, 0.00
164, 187500.00, 187500.00, 187500.00, 187500.00, 187500.00, 180945.77, -113587.96, 168704.95, 0.00, 0.00, 0.00
165, 187500.00, 187500.00, 187500.00, 187500.00, 187500.00, 180894.47, -113500.63, 168648.80, 0.00, 0.00, 0.00
166, 187500.00, 187500.00, 187500.00, 187500.00, 187500.00, 180873.58, -113478.22, 168626.72, 0.00, 0.00, 0.00
167, 187500.00, 187500.00, 187500.00, 187500.00, 187500.00, 180923.38, -113574.66, 168681.92, 0.00, 0.00, 0.00
168, 187500.00, 187500.00, 187500.00, 187500.00, 187500.00, 180951.33, -113620.48, 168712.33, 0.00, 0.00, 0.00
169, 187500.00, 187500.00, 187500.00, 187500.00, 187500.00, 180908.94, -113544.82, 168665.47, -256.00, 496.00, 8000.00
170, 187500.00, 187500.00, 187500.00, 187500.00, 187500.00, 180873.69, -113497.53, 168627.67, 0.00, 0.00, 0.00
171, 187500.00, 187500.00, 187500.00, 187500.00, 187500.00, 180914.70, -113581.30, 168673.50, 0.00, 0.00, 0.00
172, 187500.00, 187500.00, 187500.00, 187500.00, 187500.00, 180957.86, -113652.72, 168720.44, 0.00, 0.00, 0.00
173, 187500.00, 187500.00, 187500.00, 187500.00, 187500.00, 180921.88, -113588.88, 168680.97, 0.00, 0.00, 0.00
174, 187500.00, 187500.00, 187500.00, 187500.00, 187500.00, 180874.98, -113520.39, 168630.39, 0.00, 0.00, 0.00
175, 187500.00, 187500.00, 187500.00, 187500.00, 187500.00, 180906.23, -113587.90, 168665.39, 0.00, 0.00, 0.00
176, 187500.00, 187500.00, 187500.00, 187500.00, 187500.00, 180953.61, -113671.85, 168717.44, 0.00, 0.00, 0.00
177, 187500.00, 187500.00, 187500.00, 187500.00, 187500.00, 180931.17, -113628.80, 168692.44, 0.00, 0.00, 0.00
178, 187500.00, 187500.00, 187500.00, 187500.00, 187500.00, 180882.95, -113551.40, 168639.75, 0.00, 0.00, 0.00
179, 187500.00, 187500.00, 187500.00, 187500.00, 187500.00, 180899.75, -113596.05, 168659.08, -256.00, 480.00, 8000.00
180, 187500.00, 187500.00, 187500.00, 187500.00, 187500.00, 180951.94, -113691.56, 168716.70, 0.00, 0.00, 0.00
181, 187500.00, 187500.00, 187500.00, 187500.00, 187500.00, 180943.48, -113671.78, 168707.03, 0.00, 0.00, 0.00
182, 187500.00, 187500.00, 187500.00, 187500.00, 187500.00, 180890.30, -113584.38, 168648.91, 0.00, 0.00, 0.00
183, 187500.00, 187500.00, 187500.00, 187500.00, 187500.00, 180891.95, -113603.84, 168651.86, 0.00, 0.00, 0.00
184, 187500.00, 187500.00, 187500.00, 187500.00, 187500.00, 180946.48, -113705.33, 168712.17, 0.00, 0.00, 0.00
185, 187500.00, 187500.00, 187500.00, 187500.00, 187500.00, 180952.92, -113710.65, 168718.67, 0.00, 0.00, 0.00
186, 187500.00, 187500.00, 187500.00, 187500.00, 187500.00, 180900.33, -113621.60, 168661.05, 0.00, 0.00, 0.00
187, 187500.00, 187500.00, 187500.00, 187500.00, 187500.00, 180890.94, -113619.32, 168651.66, 0.00, 0.00, 0.00
188, 187500.00, 187500.00, 187500.00, 187500.00, 187500.00, 180945.34, -113721.72, 168711.75, 0.00, 0.00, 0.00
189, 187500.00, 187500.00, 187500.00, 187500.00, 187500.00, 180964.03, -113750.13, 168731.86, 0.00, 0.00, 0.00
190, 187500.00, 187500.00, 187500.00, 187500.00, 187500.00, 180914.80, -113665.19, 168677.75, -272.00, 448.00, 8032.00
191, 187500.00, 187500.00, 187500.00, 187500.00, 187500.00, 180889.22, -113635.75, 168650.75, 0.00, 0.00, 0.00
192, 187500.00, 187500.00, 187500.00, 187500.00, 187500.00, 180935.36, -113727.75, 168702.02, 0.00, 0.00, 0.00
193, 187500.00, 187500.00, 187500.00, 187500.00, 187500.00, 180966.28, -113779.07, 168735.84, 0.00, 0.00, 0.00
194, 187500.00, 187500.00, 187500.00, 187500.00, 187500.00, 180926.06, -113706.61, 168691.50, 0.00, 0.00, 0.00
195, 187500.00, 187500.00, 187500.00, 187500.00, 187500.00, 180889.84, -113656.00, 168652.47, 0.00, 0.00, 0.00
196, 187500.00, 187500.00, 187500.00, 187500.00, 187500.00, 180930.02, -113737.59, 168697.19, 0.00, 0.00, 0.00
197, 187500.00, 187500.00, 187500.00, 187500.00, 187500.00, 180970.77, -113808.53, 168741.83, 0.00, 0.00, 0.00
198, 187500.00, 187500.00, 187500.00, 187500.00, 187500.00, 180937.91, -113749.41, 168705.73, 0.00, 0.00, 0.00
199, 187500.00, 187500.00, 187500.00, 187500.00, 187500.00, 180892.73, -113680.68, 168656.77, 0.00, 0.00, 0.00
200, 187500.00, 187500.00, 187500.00, 187500.00, 187500.00, 180919.95, -113742.23, 168687.47, -224.00, 496.00, 8080.00
201, 187500.00, 187500.00, 187500.00, 187500.00, 187500.00, 180970.13, -113830.91, 168742.66, 0.00, 0.00, 0.00
202, 187500.00, 187500.00, 187500.00, 187500.00, 187500.00, 180953.41, -113795.56, 168723.56, 0.00, 0.00, 0.00
203, 187500.00, 187500.00, 187500.00, 187500.00, 187500.00, 180899.61, -113711.27, 168665.25, 0.00, 0.00, 0.00
204, 187500.00, 187500.00, 187500.00, 187500.00, 187500.00, 180913.47, -113750.82, 168681.39, 0.00, 0.00, 0.00
205, 187500.00, 187500.00, 187500.00, 187500.00, 187500.00, 180968.05, -113849.73, 168741.41, 0.00, 0.00, 0.00
206, 187500.00, 187500.00, 187500.00, 187500.00, 187500.00, 180962.75, -113835.35, 168735.17, 0.00, 0.00, 0.00
207, 187500.00, 187500.00, 187500.00, 187500.00, 187500.00, 180909.63, -113747.17, 168677.02, 0.00, 0.00, 0.00
208, 187500.00, 187500.00, 187500.00, 187500.00, 187500.00, 180910.14, -113763.02, 168678.50, 0.00, 0.00, 0.00
209, 187500.00, 187500.00, 187500.00, 187500.00, 187500.00, 180965.17, -113865.64, 168739.38, 0.00, 0.00, 0.00
210, 187500.00, 187500.00, 187500.00, 187500.00, 187500.00, 180971.97, -113873.84, 168746.70, -256.00, 512.00, 8112.00
211, 187500.00, 187500.00, 187500.00, 187500.00, 187500.00, 180920.84, -113786.06, 168690.48, 0.00, 0.00, 0.00
212, 187500.00, 187500.00, 187500.00, 187500.00, 187500.00, 180907.38, -113777.17, 168676.63, 0.00, 0.00, 0.00
213, 187500.00, 187500.00, 187500.00, 187500.00, 187500.00, 180958.47, -113876.14, 168733.31, 0.00, 0.00, 0.00
214, 187500.00, 187500.00, 187500.00, 187500.00, 187500.00, 180980.14, -113910.03, 168756.77, 0.00, 0.00, 0.00
215, 187500.00, 187500.00, 187500.00, 187500.00, 187500.00, 180933.00, -113827.80, 168705.03, 0.00, 0.00, 0.00
216, 187500.00, 187500.00, 187500.00, 187500.00, 187500.00, 180904.94, -113793.20, 168675.13, 0.00, 0.00, 0.00
217, 187500.00, 187500.00, 187500.00, 187500.00, 187500.00, 180953.23, -113886.54, 168728.53, 0.00, 0.00, 0.00
218, 187500.00, 187500.00, 187500.00, 187500.00, 187500.00, 180987.17, -113943.24, 168765.55, 0.00, 0.00, 0.00
219, 187500.00, 187500.00, 187500.00, 187500.00, 187500.00, 180947.17, -113872.23, 168721.48, 0.00, 0.00, 0.00
220, 187500.00, 187500.00, 187500.00, 187500.00, 187500.00, 180909.41, -113817.76, 168680.66, -256.00, 512.00, 8112.00
221, 187500.00, 187500.00, 187500.00, 187500.00, 187500.00, 180945.33, -113893.63, 168720.89, 0.00, 0.00, 0.00
222, 187500.00, 187500.00, 187500.00, 187500.00, 187500.00, 180988.08, -113968.79, 168767.89, 0.00, 0.00, 0.00
223, 187500.00, 187500.00, 187500.00, 187500.00, 187500.00, 180958.95, -113914.86, 168735.66, 0.00, 0.00, 0.00
224, 187500.00, 187500.00, 187500.00, 187500.00, 187500.00, 180911.58, -113841.99, 168684.27, 0.00, 0.00, 0.00
225, 187500.00, 187500.00, 187500.00, 187500.00, 187500.00, 180935.64, -113898.59, 168711.66, 0.00, 0.00, 0.00
226, 187500.00, 187500.00, 187500.00, 187500.00, 187500.00, 180985.59, -113988.55, 168766.59, 0.00, 0.00, 0.00
227, 187500.00, 187500.00, 187500.00, 187500.00, 187500.00, 180968.86, -113955.65, 168748.13, 0.00, 0.00, 0.00
228, 187500.00, 187500.00, 187500.00, 187500.00, 187500.00, 180917.25, -113872.21, 168691.69, 0.00, 0.00, 0.00
229, 187500.00, 187500.00, 187500.00, 187500.00, 187500.00, 180927.80, -113905.96, 168704.19, 0.00, 0.00, 0.00
230, 187500.00, 187500.00, 187500.00, 187500.00, 187500.00, 180982.58, -114006.05, 168764.53, 0.00, 0.00, 0.00
231, 187500.00, 187500.00, 187500.00, 187500.00, 187500.00, 180980.39, -113997.16, 168761.67, -208.00, 496.00, 8096.00
232, 187500.00, 187500.00, 187500.00, 187500.00, 187500.00, 180924.78, -113905.76, 168701.02, 0.00, 0.00, 0.00
233, 187500.00, 187500.00, 187500.00, 187500.00, 187500.00, 180922.45, -113916.29, 168699.36, 0.00, 0.00, 0.00
234, 187500.00, 187500.00, 187500.00, 187500.00, 187500.00, 180978.25, -114019.93, 168761.05, 0.00, 0.00, 0.00
235, 187500.00, 187500.00, 187500.00, 187500.00, 187500.00, 180990.77, -114036.67, 168774.48, 0.00, 0.00, 0.00
236, 187500.00, 187500.00, 187500.00, 187500.00, 187500.00, 180938.33, -113947.80, 168716.86, 0.00, 0.00, 0.00
237, 187500.00, 187500.00, 187500.00, 187500.00, 187500.00, 180921.45, -113932.80, 168699.22, 0.00, 0.00, 0.00
238, 187500.00, 187500.00, 187500.00, 187500.00, 187500.00, 180971.31, -114030.04, 168754.69, 0.00, 0.00, 0.00
239, 187500.00, 187500.00, 187500.00, 187500.00, 187500.00, 180995.44, -114068.86, 168780.91, 0.00, 0.00, 0.00
240, 187500.00, 187500.00, 187500.00, 187500.00, 187500.00, 180949.70, -113988.73, 168730.66, 0.00, 0.00, 0.00
241, 187500.00, 187500.00, 187500.00, 187500.00, 187500.00, 180918.70, -113948.67, 168697.48, -192.00, 512.00, 8064.00
242, 187500.00, 187500.00, 187500.00, 187500.00, 187500.00, 180964.97, -114039.09, 168748.72, 0.00, 0.00, 0.00
243, 187500.00, 187500.00, 187500.00, 187500.00, 187500.00, 181002.39, -114101.70, 168789.59, 0.00, 0.00, 0.00
244, 187500.00, 187500.00, 187500.00, 187500.00, 187500.00, 180964.77, -114034.39, 168748.11, 0.00, 0.00, 0.00
245, 187500.00, 187500.00, 187500.00, 187500.00, 187500.00, 180925.08, -113975.84, 168705.13, 0.00, 0.00, 0.00
246, 187500.00, 187500.00, 187500.00, 187500.00, 187500.00, 180960.19, -114049.34, 168744.33, 0.00, 0.00, 0.00
247, 187500.00, 187500.00, 187500.00, 187500.00, 187500.00, 181003.86, -114127.29, 168792.41, 0.00, 0.00, 0.00
248, 187500.00, 187500.00, 187500.00, 187500.00, 187500.00, 180977.91, -114078.41, 168763.64, 0.00, 0.00, 0.00
249, 187500.00, 187500.00, 187500.00, 187500.00, 187500.00, 180930.59, -114003.91, 168712.17, 0.00, 0.00, 0.00
250, 187500.00, 187500.00, 187500.00, 187500.00, 187500.00, 180950.11, -114053.82, 168734.72, 0.00, 0.00, 0.00
251, 187500.00, 187500.00, 187500.00, 187500.00, 187500.00, 181002.70, -114147.92, 168792.61, -192.00, 464.00, 8064.00
252, 187500.00, 187500.00, 187500.00, 187500.00, 187500.00, 180990.45, -114121.61, 168778.78, 0.00, 0.00, 0.00
253, 187500.00, 187500.00, 187500.00, 187500.00, 187500.00, 180936.61, -114034.75, 168720.08, 0.00, 0.00, 0.00
254, 187500.00, 187500.00, 187500.00, 187500.00, 187500.00, 180943.33, -114062.31, 168728.42, 0.00, 0.00, 0.00
255, 187500.00, 187500.00, 187500.00, 187500.00, 187500.00, 180999.59, -114164.98, 168790.42, 0.00, 0.00, 0.00
0, 187500.00, 187500.00, 187500.00, 187500.00, 187500.00, 181000.75, -114161.77, 168791.34, 0.00, 0.00, 0.00
1, 187500.00, 187500.00, 187500.00, 187500.00, 187500.00, 180944.88, -114069.82, 168730.36, 0.00, 0.00, 0.00
2, 187500.00, 187500.00, 187500.00, 187500.00, 187500.00, 180938.38, -114073.55, 168724.19, 0.00, 0.00, 0.00
3, 187500.00, 187500.00, 187500.00, 187500.00, 187500.00, 180992.22, -114175.32, 168783.81, 0.00, 0.00, 0.00
4, 187500.00, 187500.00, 187500.00, 187500.00, 187500.00, 181009.45, -114199.28, 168802.22, 0.00, 0.00, 0.00
5, 187500.00, 187500.00, 187500.00, 187500.00, 187500.00, 180957.09, -114110.73, 168744.89, -224.00, 464.00, 8064.00
6, 187500.00, 187500.00, 187500.00, 187500.00, 187500.00, 180935.02, -114087.93, 168721.72, 0.00, 0.00, 0.00
7, 187500.00, 187500.00, 187500.00, 187500.00, 187500.00, 180984.17, -114183.97, 168776.36, 0.00, 0.00, 0.00
8, 187500.00, 187500.00, 187500.00, 187500.00, 187500.00, 181012.47, -114229.46, 168807.08, 0.00, 0.00, 0.00
9, 187500.00, 187500.00, 187500.00, 187500.00, 187500.00, 180969.47, -114152.97, 168759.73, 0.00, 0.00, 0.00
10, 187500.00, 187500.00, 187500.00, 187500.00, 187500.00, 180935.98, -114107.88, 168723.83, 0.00, 0.00, 0.00
11, 187500.00, 187500.00, 187500.00, 187500.00, 187500.00, 180979.09, -114194.01, 168771.73, 0.00, 0.00, 0.00
12, 187500.00, 187500.00, 187500.00, 187500.00, 187500.00, 181016.73, -114259.27, 168813.11, 0.00, 0.00, 0.00
13, 187500.00, 187500.00, 187500.00, 187500.00, 187500.00, 180982.45, -114196.66, 168775.17, 0.00, 0.00, 0.00
14, 187500.00, 187500.00, 187500.00, 187500.00, 187500.00, 180939.84, -114132.95, 168728.89, 0.00, 0.00, 0.00
15, 187500.00, 187500.00, 187500.00, 187500.00, 187500.00, 180971.25, -114201.07, 168764.20, -208.00, 464.00, 8016.00
16, 187500.00, 187500.00, 187500.00, 187500.00, 187500.00, 181018.08, -114283.84, 168815.66, 0.00, 0.00, 0.00
17, 187500.00, 187500.00, 187500.00, 187500.00, 187500.00, 180994.94, -114239.65, 168790.05, 0.00, 0.00, 0.00
18, 187500.00, 187500.00, 187500.00, 187500.00, 187500.00, 180943.38, -114159.32, 168734.08, 0.00, 0.00, 0.00
19, 187500.00, 187500.00, 187500.00, 187500.00, 187500.00, 180963.14, -114207.48, 168756.53, 0.00, 0.00, 0.00
20, 187500.00, 187500.00, 187500.00, 187500.00, 187500.00, 181017.30, -114304.70, 168816.03, 0.00, 0.00, 0.00
21, 187500.00, 187500.00, 187500.00, 187500.00, 187500.00, 181006.45, -114282.05, 168803.97, 0.00, 0.00, 0.00
22, 187500.00, 187500.00, 187500.00, 187500.00, 187500.00, 180953.14, -114194.70, 168745.73, 0.00, 0.00, 0.00
23, 187500.00, 187500.00, 187500.00, 187500.00, 187500.00, 180958.00, -114217.88, 168751.91, 0.00, 0.00, 0.00
24, 187500.00, 187500.00, 187500.00, 187500.00, 187500.00, 181013.11, -114319.76, 168812.69, 0.00, 0.00, 0.00
25, 187500.00, 187500.00, 187500.00, 187500.00, 187500.00, 181020.72, -114325.64, 168820.44, 0.00, 0.00, 0.00
26, 187500.00, 187500.00, 187500.00, 187500.00, 187500.00, 180966.84, -114235.41, 168761.56, -224.00, 480.00, 8064.00
27, 187500.00, 187500.00, 187500.00, 187500.00, 187500.00, 180955.33, -114231.73, 168750.02, 0.00, 0.00, 0.00
28, 187500.00, 187500.00, 187500.00, 187500.00, 187500.00, 181007.23, -114331.78, 168807.77, 0.00, 0.00, 0.00
29, 187500.00, 187500.00, 187500.00, 187500.00, 187500.00, 181025.39, -114358.98, 168827.23, 0.00, 0.00, 0.00
30, 187500.00, 187500.00, 187500.00, 187500.00, 187500.00, 180974.77, -114272.55, 168771.94, 0.00, 0.00, 0.00
31, 187500.00, 187500.00, 187500.00, 187500.00, 187500.00, 180952.31, -114246.83, 168747.97, 0.00, 0.00, 0.00
32, 187500.00, 187500.00, 187500.00, 187500.00, 187500.00, 181000.70, -114341.15, 168801.58, 0.00, 0.00, 0.00
33, 187500.00, 187500.00, 187500.00, 187500.00, 187500.00, 181031.72, -114391.91, 168835.33, 0.00, 0.00, 0.00
34, 187500.00, 187500.00, 187500.00, 187500.00, 187500.00, 180986.61, -114314.23, 168785.97, 0.00, 0.00, 0.00
35, 187500.00, 187500.00, 187500.00, 187500.00, 187500.00, 180950.17, -114263.90, 168746.86, 0.00, 0.00, 0.00
36, 187500.00, 187500.00, 187500.00, 187500.00, 187500.00, 180990.27, -114345.80, 168791.63, -224.00, 480.00, 8016.00
37, 187500.00, 187500.00, 187500.00, 187500.00, 187500.00, 181031.25, -114416.68, 168836.56, 0.00, 0.00, 0.00
38, 187500.00, 187500.00, 187500.00, 187500.00, 187500.00, 181001.25, -114359.74, 168803.14, 0.00, 0.00, 0.00
39, 187500.00, 187500.00, 187500.00, 187500.00, 187500.00, 180955.89, -114291.33, 168754.09, 0.00, 0.00, 0.00
40, 187500.00, 187500.00, 187500.00, 187500.00, 187500.00, 180982.45, -114352.66, 168784.25, 0.00, 0.00, 0.00
41, 187500.00, 187500.00, 187500.00, 187500.00, 187500.00, 181031.64, -114439.85, 168838.28, 0.00, 0.00, 0.00
42, 187500.00, 187500.00, 187500.00, 187500.00, 187500.00, 181013.11, -114402.28, 168817.48, 0.00, 0.00, 0.00
43, 187500.00, 187500.00, 187500.00, 187500.00, 187500.00, 180962.48, -114321.37, 168762.39, 0.00, 0.00, 0.00
44, 187500.00, 187500.00, 187500.00, 187500.00, 187500.00, 180976.50, -114361.63, 168778.83, 0.00, 0.00, 0.00
45, 187500.00, 187500.00, 187500.00, 187500.00, 187500.00, 181031.48, -114460.89, 168839.39, 0.00, 0.00, 0.00
46, 187500.00, 187500.00, 187500.00, 187500.00, 187500.00, 181023.98, -114443.77, 168830.81, -224.00, 496.00, 8080.00
47, 187500.00, 187500.00, 187500.00, 187500.00, 187500.00, 180968.97, -114353.73, 168770.66, 0.00, 0.00, 0.00
48, 187500.00, 187500.00, 187500.00, 187500.00, 187500.00, 180969.11, -114369.65, 168771.72, 0.00, 0.00, 0.00
49, 187500.00, 187500.00, 187500.00, 187500.00, 187500.00, 181025.13, -114472.98, 168833.66, 0.00, 0.00, 0.00
50, 187500.00, 187500.00, 187500.00, 187500.00, 187500.00, 181031.59, -114480.42, 168840.69, 0.00, 0.00, 0.00
51, 187500.00, 187500.00, 187500.00, 187500.00, 187500.00, 180978.81, -114391.15, 168782.91, 0.00, 0.00, 0.00
52, 187500.00, 187500.00, 187500.00, 187500.00, 187500.00, 180965.75, -114383.38, 168769.50, 0.00, 0.00, 0.00
53, 187500.00, 187500.00, 187500.00, 187500.00, 187500.00, 181018.86, -114484.36, 168828.16, 0.00, 0.00, 0.00
54, 187500.00, 187500.00, 187500.00, 187500.00, 187500.00, 181040.36, -114517.55, 168851.47, 0.00, 0.00, 0.00
55, 187500.00, 187500.00, 187500.00, 187500.00, 187500.00, 180993.56, -114435.43, 168800.02, 0.00, 0.00, 0.00
56, 187500.00, 187500.00, 187500.00, 187500.00, 187500.00, 180965.94, -114401.79, 168770.63, -176.00, 480.00, 8048.00
57, 187500.00, 187500.00, 187500.00, 187500.00, 187500.00, 181013.14, -114494.33, 168823.08, 0.00, 0.00, 0.00
58, 187500.00, 187500.00, 187500.00, 187500.00, 187500.00, 181045.91, -114549.29, 168858.89, 0.00, 0.00, 0.00
59, 187500.00, 187500.00, 187500.00, 187500.00, 187500.00, 181004.75, -114476.71, 168813.63, 0.00, 0.00, 0.00
60, 187500.00, 187500.00, 187500.00, 187500.00, 187500.00, 180966.95, -114422.76, 168772.86, 0.00, 0.00, 0.00
61, 187500.00, 187500.00, 187500.00, 187500.00, 187500.00, 181004.27, -114500.23, 168814.52, 0.00, 0.00, 0.00
62, 187500.00, 187500.00, 187500.00, 187500.00, 187500.00, 181049.03, -114576.91, 168863.58, 0.00, 0.00, 0.00
63, 187500.00, 187500.00, 187500.00, 187500.00, 187500.00, 181019.39, -114522.20, 168830.86, 0.00, 0.00, 0.00
64, 187500.00, 187500.00, 187500.00, 187500.00, 187500.00, 180973.17, -114450.88, 168780.61, 0.00, 0.00, 0.00
65, 187500.00, 187500.00, 187500.00, 187500.00, 187500.00, 180999.25, -114509.80, 168810.03, 0.00, 0.00, 0.00
66, 187500.00, 187500.00, 187500.00, 187500.00, 187500.00, 181047.88, -114598.17, 168863.72, -160.00, 496.00, 8032.00
67, 187500.00, 187500.00, 187500.00, 187500.00, 187500.00, 181031.11, -114564.63, 168845.08, 0.00, 0.00, 0.00
68, 187500.00, 187500.00, 187500.00, 187500.00, 187500.00, 180979.83, -114481.88, 168789.19, 0.00, 0.00, 0.00
69, 187500.00, 187500.00, 187500.00, 187500.00, 187500.00, 180993.64, -114519.52, 168805.11, 0.00, 0.00, 0.00
70, 187500.00, 187500.00, 187500.00, 187500.00, 187500.00, 181047.53, -114618.45, 168864.39, 0.00, 0.00, 0.00
71, 187500.00, 187500.00, 187500.00, 187500.00, 187500.00, 181042.16, -114605.88, 168858.45, 0.00, 0.00, 0.00
72, 187500.00, 187500.00, 187500.00, 187500.00, 187500.00, 180987.34, -114515.43, 168798.64, 0.00, 0.00, 0.00
73, 187500.00, 187500.00, 187500.00, 187500.00, 187500.00, 180985.28, -114526.71, 168797.23, 0.00, 0.00, 0.00
74, 187500.00, 187500.00, 187500.00, 187500.00, 187500.00, 181040.25, -114629.58, 168858.14, 0.00, 0.00, 0.00
75, 187500.00, 187500.00, 187500.00, 187500.00, 187500.00, 181050.83, -114643.52, 168869.44, 0.00, 0.00, 0.00
76, 187500.00, 187500.00, 187500.00, 187500.00, 187500.00, 180997.78, -114554.05, 168811.39, 0.00, 0.00, 0.00
77, 187500.00, 187500.00, 187500.00, 187500.00, 187500.00, 180982.03, -114540.64, 168794.88, -256.00, 448.00, 8048.00
78, 187500.00, 187500.00, 187500.00, 187500.00, 187500.00, 181033.80, -114639.91, 168852.30, 0.00, 0.00, 0.00
79, 187500.00, 187500.00, 187500.00, 187500.00, 187500.00, 181058.22, -114678.59, 168878.83, 0.00, 0.00, 0.00
80, 187500.00, 187500.00, 187500.00, 187500.00, 187500.00, 181012.78, -114598.41, 168828.73, 0.00, 0.00, 0.00
81, 187500.00, 187500.00, 187500.00, 187500.00, 187500.00, 180980.97, -114558.14, 168794.94, 0.00, 0.00, 0.00
82, 187500.00, 187500.00, 187500.00, 187500.00, 187500.00, 181025.81, -114647.44, 168844.92, 0.00, 0.00, 0.00
83, 187500.00, 187500.00, 187500.00, 187500.00, 187500.00, 181063.30, -114709.69, 168885.70, 0.00, 0.00, 0.00
84, 187500.00, 187500.00, 187500.00, 187500.00, 187500.00, 181026.75, -114643.03, 168845.20, 0.00, 0.00, 0.00
85, 187500.00, 187500.00, 187500.00, 187500.00, 187500.00, 180983.67, -114581.59, 168798.94, 0.00, 0.00, 0.00
86, 187500.00, 187500.00, 187500.00, 187500.00, 187500.00, 181016.38, -114652.87, 168835.81, 0.00, 0.00, 0.00
87, 187500.00, 187500.00, 187500.00, 187500.00, 187500.00, 181063.16, -114733.53, 168887.08, -224.00, 480.00, 8048.00
88, 187500.00, 187500.00, 187500.00, 187500.00, 187500.00, 181039.38, -114686.26, 168860.41, 0.00, 0.00, 0.00
89, 187500.00, 187500.00, 187500.00, 187500.00, 187500.00, 180991.86, -114611.85, 168808.70, 0.00, 0.00, 0.00
90, 187500.00, 187500.00, 187500.00, 187500.00, 187500.00, 181011.75, -114662.66, 168831.64, 0.00, 0.00, 0.00
91, 187500.00, 187500.00, 187500.00, 187500.00, 187500.00, 181062.95, -114755.17, 168888.08, 0.00, 0.00, 0.00
92, 187500.00, 187500.00, 187500.00, 187500.00, 187500.00, 181052.05, -114729.65, 168875.53, 0.00, 0.00, 0.00
93, 187500.00, 187500.00, 187500.00, 187500.00, 187500.00, 180998.23, -114642.92, 168816.89, 0.00, 0.00, 0.00
94, 187500.00, 187500.00, 187500.00, 187500.00, 187500.00, 181005.81, -114671.95, 168826.20, 0.00, 0.00, 0.00
95, 187500.00, 187500.00, 187500.00, 187500.00, 187500.00, 181060.72, -114772.88, 168886.80, 0.00, 0.00, 0.00
96, 187500.00, 187500.00, 187500.00, 187500.00, 187500.00, 181060.09, -114767.40, 168885.84, 0.00, 0.00, 0.00
97, 187500.00, 187500.00, 187500.00, 187500.00, 187500.00, 181006.36, -114677.66, 168827.14, -256.00, 480.00, 8064.00
98, 187500.00, 187500.00, 187500.00, 187500.00, 187500.00, 180999.23, -114681.30, 168820.33, 0.00, 0.00, 0.00
99, 187500.00, 187500.00, 187500.00, 187500.00, 187500.00, 181053.69, -114783.78, 168880.61, 0.00, 0.00, 0.00
100, 187500.00, 187500.00, 187500.00, 187500.00, 187500.00, 181069.39, -114805.64, 168897.52, 0.00, 0.00, 0.00
101, 187500.00, 187500.00, 187500.00, 187500.00, 187500.00, 181018.56, -114718.47, 168841.70, 0.00, 0.00, 0.00
102, 187500.00, 187500.00, 187500.00, 187500.00, 187500.00, 180996.13, -114695.83, 168818.20, 0.00, 0.00, 0.00
103, 187500.00, 187500.00, 187500.00, 187500.00, 187500.00, 181047.09, -114793.70, 168874.70, 0.00, 0.00, 0.00
104, 187500.00, 187500.00, 187500.00, 187500.00, 187500.00, 181074.78, -114838.12, 168904.77, 0.00, 0.00, 0.00
105, 187500.00, 187500.00, 187500.00, 187500.00, 187500.00, 181029.44, -114758.97, 168855.00, 0.00, 0.00, 0.00
106, 187500.00, 187500.00, 187500.00, 187500.00, 187500.00, 180998.25, -114716.84, 168821.42, 0.00, 0.00, 0.00
107, 187500.00, 187500.00, 187500.00, 187500.00, 187500.00, 181040.41, -114802.22, 168868.56, -240.00, 480.00, 8064.00
108, 187500.00, 187500.00, 187500.00, 187500.00, 187500.00, 181079.45, -114868.47, 168911.30, 0.00, 0.00, 0.00
109, 187500.00, 187500.00, 187500.00, 187500.00, 187500.00, 181043.06, -114803.45, 168871.22, 0.00, 0.00, 0.00
110, 187500.00, 187500.00, 187500.00, 187500.00, 187500.00, 180998.05, -114737.78, 168822.86, 0.00, 0.00, 0.00
111, 187500.00, 187500.00, 187500.00, 187500.00, 187500.00, 181031.25, -114807.74, 168859.83, 0.00, 0.00, 0.00
112, 187500.00, 187500.00, 187500.00, 187500.00, 187500.00, 181079.61, -114891.98, 168912.75, 0.00, 0.00, 0.00
113, 187500.00, 187500.00, 187500.00, 187500.00, 187500.00, 181054.73, -114845.78, 168885.39, 0.00, 0.00, 0.00
114, 187500.00, 187500.00, 187500.00, 187500.00, 187500.00, 181006.13, -114768.63, 168832.48, 0.00, 0.00, 0.00
115, 187500.00, 187500.00, 187500.00, 187500.00, 187500.00, 181024.02, -114815.09, 168853.05, 0.00, 0.00, 0.00
116, 187500.00, 187500.00, 187500.00, 187500.00, 187500.00, 181079.34, -114913.24, 168913.84, 0.00, 0.00, 0.00
117, 187500.00, 187500.00, 187500.00, 187500.00, 187500.00, 181068.44, -114890.00, 168901.55, -240.00, 464.00, 8032.00
118, 187500.00, 187500.00, 187500.00, 187500.00, 187500.00, 181013.89, -114801.57, 168842.03, 0.00, 0.00, 0.00
119, 187500.00, 187500.00, 187500.00, 187500.00, 187500.00, 181017.52, -114824.06, 168847.19, 0.00, 0.00, 0.00
120, 187500.00, 187500.00, 187500.00, 187500.00, 187500.00, 181073.08, -114926.34, 168908.69, 0.00, 0.00, 0.00
121, 187500.00, 187500.00, 187500.00, 187500.00, 187500.00, 181076.97, -114928.15, 168912.59, 0.00, 0.00, 0.00
122, 187500.00, 187500.00, 187500.00, 187500.00, 187500.00, 181022.72, -114837.45, 168853.20, 0.00, 0.00, 0.00
123, 187500.00, 187500.00, 187500.00, 187500.00, 187500.00, 181014.34, -114837.25, 168844.92, 0.00, 0.00, 0.00
124, 187500.00, 187500.00, 187500.00, 187500.00, 187500.00, 181067.14, -114938.09, 168903.48, 0.00, 0.00, 0.00
125, 187500.00, 187500.00, 187500.00, 187500.00, 187500.00, 181085.41, -114965.03, 168923.09, 0.00, 0.00, 0.00
126, 187500.00, 187500.00, 187500.00, 187500.00, 187500.00, 181036.70, -114880.50, 168869.66, 0.00, 0.00, 0.00
127, 187500.00, 187500.00, 187500.00, 187500.00, 187500.00, 181013.05, -114853.70, 168844.58, 0.00, 0.00, 0.00
128, 187500.00, 187500.00, 187500.00, 187500.00, 187500.00, 181059.34, -114946.14, 168896.28, -208.00, 496.00, 8000.00
129, 187500.00, 187500.00, 187500.00, 187500.00, 187500.00, 181091.61, -114997.89, 168931.27, 0.00, 0.00, 0.00
130, 187500.00, 187500.00, 187500.00, 187500.00, 187500.00, 181047.56, -114921.09, 168882.98, 0.00, 0.00, 0.00
131, 187500.00, 187500.00, 187500.00, 187500.00, 187500.00, 181011.42, -114871.31, 168844.27, 0.00, 0.00, 0.00
132, 187500.00, 187500.00, 187500.00, 187500.00, 187500.00, 181053.58, -114955.46, 168891.05, 0.00, 0.00, 0.00
133, 187500.00, 187500.00, 187500.00, 187500.00, 187500.00, 181095.59, -115026.84, 168936.94, 0.00, 0.00, 0.00
134, 187500.00, 187500.00, 187500.00, 187500.00, 187500.00, 181062.28, -114966.44, 168900.22, 0.00, 0.00, 0.00
135, 187500.00, 187500.00, 187500.00, 187500.00, 187500.00, 181016.95, -114898.31, 168851.17, 0.00, 0.00, 0.00
136, 187500.00, 187500.00, 187500.00, 187500.00, 187500.00, 181045.08, -114961.43, 168882.94, 0.00, 0.00, 0.00
137, 187500.00, 187500.00, 187500.00, 187500.00, 187500.00, 181094.59, -115048.60, 168937.27, 0.00, 0.00, 0.00
138, 187500.00, 187500.00, 187500.00, 187500.00, 187500.00, 181075.30, -115010.05, 168915.75, -240.00, 496.00, 8048.00
139, 187500.00, 187500.00, 187500.00, 187500.00, 187500.00, 181023.00, -114927.80, 168859.02, 0.00, 0.00, 0.00
140, 187500.00, 187500.00, 187500.00, 187500.00, 187500.00, 181037.55, -114968.92, 168875.98, 0.00, 0.00, 0.00
141, 187500.00, 187500.00, 187500.00, 187500.00, 187500.00, 181089.83, -115065.23, 168933.86, 0.00, 0.00, 0.00
142, 187500.00, 187500.00, 187500.00, 187500.00, 187500.00, 181082.63, -115047.98, 168925.56, 0.00, 0.00, 0.00
143, 187500.00, 187500.00, 187500.00, 187500.00, 187500.00, 181030.53, -114961.12, 168868.47, 0.00, 0.00, 0.00
144, 187500.00, 187500.00, 187500.00, 187500.00, 187500.00, 181032.97, -114979.70, 168872.00, 0.00, 0.00, 0.00
145, 187500.00, 187500.00, 187500.00, 187500.00, 187500.00, 181087.44, -115081.51, 168932.22, 0.00, 0.00, 0.00
146, 187500.00, 187500.00, 187500.00, 187500.00, 187500.00, 181096.84, -115091.38, 168941.98, 0.00, 0.00, 0.00
147, 187500.00, 187500.00, 187500.00, 187500.00, 187500.00, 181042.16, -115000.19, 168882.38, 0.00, 0.00, 0.00
148, 187500.00, 187500.00, 187500.00, 187500.00, 187500.00, 181029.31, -114992.81, 168869.28, -256.00, 512.00, 8016.00
149, 187500.00, 187500.00, 187500.00, 187500.00, 187500.00, 181082.09, -115093.46, 168927.77, 0.00, 0.00, 0.00
150, 187500.00, 187500.00, 187500.00, 187500.00, 187500.00, 181101.92, -115124.45, 168949.25, 0.00, 0.00, 0.00
151, 187500.00, 187500.00, 187500.00, 187500.00, 187500.00, 181054.52, -115041.50, 168897.11, 0.00, 0.00, 0.00
152, 187500.00, 187500.00, 187500.00, 187500.00, 187500.00, 181027.39, -115008.80, 168868.41, 0.00, 0.00, 0.00
153, 187500.00, 187500.00, 187500.00, 187500.00, 187500.00, 181074.36, -115101.22, 168920.55, 0.00, 0.00, 0.00
154, 187500.00, 187500.00, 187500.00, 187500.00, 187500.00, 181107.81, -115156.54, 168956.97, 0.00, 0.00, 0.00
155, 187500.00, 187500.00, 187500.00, 187500.00, 187500.00, 181068.61, -115085.69, 168913.77, 0.00, 0.00, 0.00
156, 187500.00, 187500.00, 187500.00, 187500.00, 187500.00, 181032.81, -115034.08, 168874.98, 0.00, 0.00, 0.00
157, 187500.00, 187500.00, 187500.00, 187500.00, 187500.00, 181067.36, -115109.18, 168914.00, 0.00, 0.00, 0.00
158, 187500.00, 187500.00, 187500.00, 187500.00, 187500.00, 181111.81, -115185.09, 168962.64, -224.00, 480.00, 8016.00
159, 187500.00, 187500.00, 187500.00, 187500.00, 187500.00, 181082.94, -115130.97, 168930.64, 0.00, 0.00, 0.00
160, 187500.00, 187500.00, 187500.00, 187500.00, 187500.00, 181035.05, -115058.20, 168878.84, 0.00, 0.00, 0.00
161, 187500.00, 187500.00, 187500.00, 187500.00, 187500.00, 181061.44, -115117.67, 168908.63, 0.00, 0.00, 0.00
162, 187500.00, 187500.00, 187500.00, 187500.00, 187500.00, 181111.16, -115206.79, 168963.47, 0.00, 0.00, 0.00
163, 187500.00, 187500.00, 187500.00, 187500.00, 187500.00, 181093.06, -115171.59, 168943.44, 0.00, 0.00, 0.00
164, 187500.00, 187500.00, 187500.00, 187500.00, 187500.00, 181041.50, -115088.55, 168887.09, 0.00, 0.00, 0.00
165, 187500.00, 187500.00, 187500.00, 187500.00, 187500.00, 181054.67, -115125.85, 168902.38, 0.00, 0.00, 0.00
166, 187500.00, 187500.00, 187500.00, 187500.00, 187500.00, 181108.11, -115224.38, 168961.59, 0.00, 0.00, 0.00
167, 187500.00, 187500.00, 187500.00, 187500.00, 187500.00, 181104.00, -115212.64, 168956.77, 0.00, 0.00, 0.00
168, 187500.00, 187500.00, 187500.00, 187500.00, 187500.00, 181050.47, -115123.53, 168898.27, -192.00, 480.00, 8032.00
169, 187500.00, 187500.00, 187500.00, 187500.00, 187500.00, 181047.63, -115134.37, 168896.13, 0.00, 0.00, 0.00
170, 187500.00, 187500.00, 187500.00, 187500.00, 187500.00, 181101.16, -115235.66, 168955.47, 0.00, 0.00, 0.00
171, 187500.00, 187500.00, 187500.00, 187500.00, 187500.00, 181111.89, -115249.32, 168966.91, 0.00, 0.00, 0.00
172, 187500.00, 187500.00, 187500.00, 187500.00, 187500.00, 181060.05, -115160.92, 168910.08, 0.00, 0.00, 0.00
173, 187500.00, 187500.00, 187500.00, 187500.00, 187500.00, 181045.45, -115149.19, 168894.78, 0.00, 0.00, 0.00
174, 187500.00, 187500.00, 187500.00, 187500.00, 187500.00, 181098.25, -115249.63, 168953.28, 0.00, 0.00, 0.00
175, 187500.00, 187500.00, 187500.00, 187500.00, 187500.00, 181122.53, -115287.70, 168979.63, 0.00, 0.00, 0.00
176, 187500.00, 187500.00, 187500.00, 187500.00, 187500.00, 181074.84, -115205.23, 168927.39, 0.00, 0.00, 0.00
177, 187500.00, 187500.00, 187500.00, 187500.00, 187500.00, 181046.38, -115168.50, 168896.86, 0.00, 0.00, 0.00
178, 187500.00, 187500.00, 187500.00, 187500.00, 187500.00, 181088.19, -115254.80, 168943.73, 0.00, 0.00, 0.00
179, 187500.00, 187500.00, 187500.00, 187500.00, 187500.00, 181124.06, -115315.08, 168983.08, -224.00, 496.00, 7968.00
180, 187500.00, 187500.00, 187500.00, 187500.00, 187500.00, 181086.42, -115247.24, 168941.56, 0.00, 0.00, 0.00
181, 187500.00, 187500.00, 187500.00, 187500.00, 187500.00, 181046.03, -115188.64, 168898.00, 0.00, 0.00, 0.00
182, 187500.00, 187500.00, 187500.00, 187500.00, 187500.00, 181080.48, -115262.06, 168936.64, 0.00, 0.00, 0.00
183, 187500.00, 187500.00, 187500.00, 187500.00, 187500.00, 181124.77, -115339.91, 168985.31, 0.00, 0.00, 0.00
184, 187500.00, 187500.00, 187500.00, 187500.00, 187500.00, 181099.91, -115291.32, 168957.59, 0.00, 0.00, 0.00
185, 187500.00, 187500.00, 187500.00, 187500.00, 187500.00, 181052.28, -115217.05, 168905.75, 0.00, 0.00, 0.00
186, 187500.00, 187500.00, 187500.00, 187500.00, 187500.00, 181072.58, -115268.52, 168929.31, 0.00, 0.00, 0.00
187, 187500.00, 187500.00, 187500.00, 187500.00, 187500.00, 181123.88, -115360.79, 168985.95, 0.00, 0.00, 0.00
188, 187500.00, 187500.00, 187500.00, 187500.00, 187500.00, 181110.05, -115331.96, 168970.27, 0.00, 0.00, 0.00
189, 187500.00, 187500.00, 187500.00, 187500.00, 187500.00, 181056.02, -115245.23, 168911.44, -224.00, 496.00, 8032.00
190, 187500.00, 187500.00, 187500.00, 187500.00, 187500.00, 181065.89, -115276.91, 168923.19, 0.00, 0.00, 0.00
191, 187500.00, 187500.00, 187500.00, 187500.00, 187500.00, 181122.06, -115378.90, 168985.02, 0.00, 0.00, 0.00
192, 187500.00, 187500.00, 187500.00, 187500.00, 187500.00, 181122.75, -115374.38, 168985.34, 0.00, 0.00, 0.00
193, 187500.00, 187500.00, 187500.00, 187500.00, 187500.00, 181068.08, -115283.74, 168925.61, 0.00, 0.00, 0.00
194, 187500.00, 187500.00, 187500.00, 187500.00, 187500.00, 181062.00, -115288.82, 168920.05, 0.00, 0.00, 0.00
195, 187500.00, 187500.00, 187500.00, 187500.00, 187500.00, 181115.22, -115389.91, 168979.14, 0.00, 0.00, 0.00
196, 187500.00, 187500.00, 187500.00, 187500.00, 187500.00, 181130.27, -115410.55, 168995.19, 0.00, 0.00, 0.00
197, 187500.00, 187500.00, 187500.00, 187500.00, 187500.00, 181080.06, -115324.16, 168940.14, 0.00, 0.00, 0.00
198, 187500.00, 187500.00, 187500.00, 187500.00, 187500.00, 181059.70, -115303.91, 168918.70, 0.00, 0.00, 0.00
199, 187500.00, 187500.00, 187500.00, 187500.00, 187500.00, 181110.91, -115401.96, 168975.41, -224.00, 464.00, 8016.00
200, 187500.00, 187500.00, 187500.00, 187500.00, 187500.00, 181137.06, -115444.41, 169003.95, 0.00, 0.00, 0.00
201, 187500.00, 187500.00, 187500.00, 187500.00, 187500.00, 181092.06, -115365.48, 168954.47, 0.00, 0.00, 0.00
202, 187500.00, 187500.00, 187500.00, 187500.00, 187500.00, 181062.16, -115324.96, 168922.39, 0.00, 0.00, 0.00
203, 187500.00, 187500.00, 187500.00, 187500.00, 187500.00, 181101.66, -115407.87, 168966.86, 0.00, 0.00, 0.00
204, 187500.00, 187500.00, 187500.00, 187500.00, 187500.00, 181140.08, -115473.06, 169008.89, 0.00, 0.00, 0.00
205, 187500.00, 187500.00, 187500.00, 187500.00, 187500.00, 181102.83, -115407.02, 168968.03, 0.00, 0.00, 0.00
206, 187500.00, 187500.00, 187500.00, 187500.00, 187500.00, 181060.33, -115344.07, 168922.00, 0.00, 0.00, 0.00
207, 187500.00, 187500.00, 187500.00, 187500.00, 187500.00, 181092.55, -115413.43, 168958.16, 0.00, 0.00, 0.00
208, 187500.00, 187500.00, 187500.00, 187500.00, 187500.00, 181138.22, -115494.41, 169008.58, 0.00, 0.00, 0.00
209, 187500.00, 187500.00, 187500.00, 187500.00, 187500.00, 181112.89, -115447.36, 168980.59, -224.00, 448.00, 8048.00
210, 187500.00, 187500.00, 187500.00, 187500.00, 187500.00, 181065.44, -115371.70, 168928.75, 0.00, 0.00, 0.00
211, 187500.00, 187500.00, 187500.00, 187500.00, 187500.00, 181085.25, -115420.56, 168951.42, 0.00, 0.00, 0.00
212, 187500.00, 187500.00, 187500.00, 187500.00, 187500.00, 181140.52, -115518.30, 169012.11, 0.00, 0.00, 0.00
213, 187500.00, 187500.00, 187500.00, 187500.00, 187500.00, 181129.88, -115494.95, 169000.17, 0.00, 0.00, 0.00
214, 187500.00, 187500.00, 187500.00, 187500.00, 187500.00, 181075.77, -115407.02, 168941.19, 0.00, 0.00, 0.00
215, 187500.00, 187500.00, 187500.00, 187500.00, 187500.00, 181080.89, -115431.42, 168947.73, 0.00, 0.00, 0.00
216, 187500.00, 187500.00, 187500.00, 187500.00, 187500.00, 181137.17, -115534.17, 169009.78, 0.00, 0.00, 0.00
217, 187500.00, 187500.00, 187500.00, 187500.00, 187500.00, 181139.27, -115533.62, 169011.92, 0.00, 0.00, 0.00
218, 187500.00, 187500.00, 187500.00, 187500.00, 187500.00, 181084.13, -115442.15, 168951.72, 0.00, 0.00, 0.00
219, 187500.00, 187500.00, 187500.00, 187500.00, 187500.00, 181073.52, -115440.03, 168941.14, -240.00, 448.00, 8016.00
220, 187500.00, 187500.00, 187500.00, 187500.00, 187500.00, 181128.72, -115543.25, 169002.06, 0.00, 0.00, 0.00
221, 187500.00, 187500.00, 187500.00, 187500.00, 187500.00, 181146.56, -115569.24, 169021.30, 0.00, 0.00, 0.00
222, 187500.00, 187500.00, 187500.00, 187500.00, 187500.00, 181096.31, -115483.05, 168966.28, 0.00, 0.00, 0.00
223, 187500.00, 187500.00, 187500.00, 187500.00, 187500.00, 181072.17, -115456.37, 168940.89, 0.00, 0.00, 0.00
224, 187500.00, 187500.00, 187500.00, 187500.00, 187500.00, 181122.73, -115553.17, 168996.89, 0.00, 0.00, 0.00
225, 187500.00, 187500.00, 187500.00, 187500.00, 187500.00, 181150.28, -115599.66, 169027.11, 0.00, 0.00, 0.00
226, 187500.00, 187500.00, 187500.00, 187500.00, 187500.00, 181107.73, -115524.25, 168980.25, 0.00, 0.00, 0.00
227, 187500.00, 187500.00, 187500.00, 187500.00, 187500.00, 181072.58, -115476.10, 168942.55, 0.00, 0.00, 0.00
228, 187500.00, 187500.00, 187500.00, 187500.00, 187500.00, 181112.80, -115558.45, 168987.50, 0.00, 0.00, 0.00
229, 187500.00, 187500.00, 187500.00, 187500.00, 187500.00, 181154.47, -115629.02, 169033.08, 0.00, 0.00, 0.00
230, 187500.00, 187500.00, 187500.00, 187500.00, 187500.00, 181120.45, -115567.57, 168995.56, -208.00, 464.00, 8032.00
231, 187500.00, 187500.00, 187500.00, 187500.00, 187500.00, 181076.23, -115500.89, 168947.69, 0.00, 0.00, 0.00
232, 187500.00, 187500.00, 187500.00, 187500.00, 187500.00, 181104.31, -115564.35, 168979.47, 0.00, 0.00, 0.00
233, 187500.00, 187500.00, 187500.00, 187500.00, 187500.00, 181156.20, -115653.60, 169036.31, 0.00, 0.00, 0.00
234, 187500.00, 187500.00, 187500.00, 187500.00, 187500.00, 181135.36, -115613.05, 169013.16, 0.00, 0.00, 0.00
235, 187500.00, 187500.00, 187500.00, 187500.00, 187500.00, 181081.48, -115529.37, 168954.80, 0.00, 0.00, 0.00
236, 187500.00, 187500.00, 187500.00, 187500.00, 187500.00, 181100.05, -115574.97, 168976.03, 0.00, 0.00, 0.00
237, 187500.00, 187500.00, 187500.00, 187500.00, 187500.00, 181153.03, -115671.48, 169034.41, 0.00, 0.00, 0.00
238, 187500.00, 187500.00, 187500.00, 187500.00, 187500.00, 181145.19, -115653.11, 169025.41, 0.00, 0.00, 0.00
239, 187500.00, 187500.00, 187500.00, 187500.00, 187500.00, 181092.36, -115565.65, 168967.58, 0.00, 0.00, 0.00
240, 187500.00, 187500.00, 187500.00, 187500.00, 187500.00, 181092.53, -115582.70, 168969.08, -272.00, 496.00, 8016.00
241, 187500.00, 187500.00, 187500.00, 187500.00, 187500.00, 181149.06, -115686.34, 169031.33, 0.00, 0.00, 0.00
242, 187500.00, 187500.00, 187500.00, 187500.00, 187500.00, 181155.97, -115693.03, 169038.50, 0.00, 0.00, 0.00
243, 187500.00, 187500.00, 187500.00, 187500.00, 187500.00, 181103.95, -115604.65, 168981.59, 0.00, 0.00, 0.00
244, 187500.00, 187500.00, 187500.00, 187500.00, 187500.00, 181090.67, -115597.43, 168968.19, 0.00, 0.00, 0.00
245, 187500.00, 187500.00, 187500.00, 187500.00, 187500.00, 181142.98, -115697.63, 169026.23, 0.00, 0.00, 0.00
246, 187500.00, 187500.00, 187500.00, 187500.00, 187500.00, 181162.42, -115727.65, 169047.31, 0.00, 0.00, 0.00
247, 187500.00, 187500.00, 187500.00, 187500.00, 187500.00, 181115.08, -115644.73, 168995.25, 0.00, 0.00, 0.00
248, 187500.00, 187500.00, 187500.00, 187500.00, 187500.00, 181088.98, -115613.39, 168967.56, 0.00, 0.00, 0.00
249, 187500.00, 187500.00, 187500.00, 187500.00, 187500.00, 181135.89, -115705.77, 169019.59, 0.00, 0.00, 0.00
250, 187500.00, 187500.00, 187500.00, 187500.00, 187500.00, 181168.42, -115759.70, 169055.20, -256.00, 496.00, 8032.00
251, 187500.00, 187500.00, 187500.00, 187500.00, 187500.00, 181129.41, -115688.96, 169012.06, 0.00, 0.00, 0.00
252, 187500.00, 187500.00, 187500.00, 187500.00, 187500.00, 181089.53, -115633.69, 168969.27, 0.00, 0.00, 0.00
253, 187500.00, 187500.00, 187500.00, 187500.00, 187500.00, 181125.44, -115710.35, 169009.72, 0.00, 0.00, 0.00
254, 187500.00, 187500.00, 187500.00, 187500.00, 187500.00, 181168.33, -115784.42, 169056.81, 0.00, 0.00, 0.00
255, 187500.00, 187500.00, 187500.00, 187500.00, 187500.00, 181135.94, -115726.31, 169021.27, 0.00, 0.00, 0.00
0, 187500.00, 187500.00, 187500.00, 187500.00, 187500.00, 181090.72, -115656.52, 168972.14, 0.00, 0.00, 0.00
1, 187500.00, 187500.00, 187500.00, 187500.00, 187500.00, 181116.63, -115715.91, 169001.52, 0.00, 0.00, 0.00
2, 187500.00, 187500.00, 187500.00, 187500.00, 187500.00, 181169.20, -115807.54, 169059.11, 0.00, 0.00, 0.00
3, 187500.00, 187500.00, 187500.00, 187500.00, 187500.00, 181152.23, -115772.80, 169039.95, 0.00, 0.00, 0.00
4, 187500.00, 187500.00, 187500.00, 187500.00, 187500.00, 181098.77, -115688.24, 168981.84, -256.00, 528.00, 8032.00
5, 187500.00, 187500.00, 187500.00, 187500.00, 187500.00, 181112.25, -115726.47, 168997.69, 0.00, 0.00, 0.00
6, 187500.00, 187500.00, 187500.00, 187500.00, 187500.00, 181167.31, -115826.20, 169058.36, 0.00, 0.00, 0.00
7, 187500.00, 187500.00, 187500.00, 187500.00, 187500.00, 181162.31, -115812.95, 169052.55, 0.00, 0.00, 0.00
8, 187500.00, 187500.00, 187500.00, 187500.00, 187500.00, 181107.44, -115722.53, 168992.77, 0.00, 0.00, 0.00
9, 187500.00, 187500.00, 187500.00, 187500.00, 187500.00, 181106.36, -115735.70, 168992.44, 0.00, 0.00, 0.00
10, 187500.00, 187500.00, 187500.00, 187500.00, 187500.00, 181160.50, -115837.51, 169052.41, 0.00, 0.00, 0.00
11, 187500.00, 187500.00, 187500.00, 187500.00, 187500.00, 181171.41, -115850.80, 169063.98, 0.00, 0.00, 0.00
12, 187500.00, 187500.00, 187500.00, 187500.00, 187500.00, 181120.41, -115763.39, 169008.11, 0.00, 0.00, 0.00
13, 187500.00, 187500.00, 187500.00, 187500.00, 187500.00, 181106.19, -115752.46, 168993.33, 0.00, 0.00, 0.00
14, 187500.00, 187500.00, 187500.00, 187500.00, 187500.00, 181158.33, -115852.17, 169051.13, 0.00, 0.00, 0.00
15, 187500.00, 187500.00, 187500.00, 187500.00, 187500.00, 181176.59, -115883.76, 169071.47, -288.00, 528.00, 8032.00
16, 187500.00, 187500.00, 187500.00, 187500.00, 187500.00, 181130.58, -115802.66, 169020.73, 0.00, 0.00, 0.00
17, 187500.00, 187500.00, 187500.00, 187500.00, 187500.00, 181103.84, -115768.15, 168992.02, 0.00, 0.00, 0.00
18, 187500.00, 187500.00, 187500.00, 187500.00, 187500.00, 181148.13, -115857.16, 169041.50, 0.00, 0.00, 0.00
19, 187500.00, 187500.00, 187500.00, 187500.00, 187500.00, 181184.22, -115917.08, 169080.92, 0.00, 0.00, 0.00
20, 187500.00, 187500.00, 187500.00, 187500.00, 187500.00, 181145.17, -115847.55, 169037.94, 0.00, 0.00, 0.00
21, 187500.00, 187500.00, 187500.00, 187500.00, 187500.00, 181104.84, -115789.45, 168994.50, 0.00, 0.00, 0.00
22, 187500.00, 187500.00, 187500.00, 187500.00, 187500.00, 181140.77, -115864.60, 169034.69, 0.00, 0.00, 0.00
23, 187500.00, 187500.00, 187500.00, 187500.00, 187500.00, 181186.55, -115943.59, 169084.86, 0.00, 0.00, 0.00
24, 187500.00, 187500.00, 187500.00, 187500.00, 187500.00, 181159.00, -115891.94, 169054.34, 0.00, 0.00, 0.00
25, 187500.00, 187500.00, 187500.00, 187500.00, 187500.00, 181112.41, -115819.09, 169003.70, -288.00, 528.00, 8064.00
26, 187500.00, 187500.00, 187500.00, 187500.00, 187500.00, 181135.00, -115873.27, 169029.52, 0.00, 0.00, 0.00
27, 187500.00, 187500.00, 187500.00, 187500.00, 187500.00, 181186.75, -115965.67, 169086.45, 0.00, 0.00, 0.00
28, 187500.00, 187500.00, 187500.00, 187500.00, 187500.00, 181171.64, -115935.05, 169069.66, 0.00, 0.00, 0.00
29, 187500.00, 187500.00, 187500.00, 187500.00, 187500.00, 181118.06, -115849.02, 169011.39, 0.00, 0.00, 0.00
30, 187500.00, 187500.00, 187500.00, 187500.00, 187500.00, 181126.86, -115880.09, 169022.13, 0.00, 0.00, 0.00
31, 187500.00, 187500.00, 187500.00, 187500.00, 187500.00, 181182.41, -115981.23, 169083.30, 0.00, 0.00, 0.00
32, 187500.00, 187500.00, 187500.00, 187500.00, 187500.00, 181180.95, -115974.05, 169081.36, 0.00, 0.00, 0.00
33, 187500.00, 187500.00, 187500.00, 187500.00, 187500.00, 181124.42, -115881.63, 169019.92, 0.00, 0.00, 0.00
34, 187500.00, 187500.00, 187500.00, 187500.00, 187500.00, 181120.58, -115889.48, 169016.75, 0.00, 0.00, 0.00
35, 187500.00, 187500.00, 187500.00, 187500.00, 187500.00, 181176.95, -115993.70, 169078.98, -272.00, 528.00, 8032.00
36, 187500.00, 187500.00, 187500.00, 187500.00, 187500.00, 181188.78, -116010.73, 169091.77, 0.00, 0.00, 0.00
37, 187500.00, 187500.00, 187500.00, 187500.00, 187500.00, 181138.48, -115924.01, 169036.42, 0.00, 0.00, 0.00
38, 187500.00, 187500.00, 187500.00, 187500.00, 187500.00, 181118.81, -115904.92, 169015.91, 0.00, 0.00, 0.00
39, 187500.00, 187500.00, 187500.00, 187500.00, 187500.00, 181170.97, -116004.08, 169073.64, 0.00, 0.00, 0.00
40, 187500.00, 187500.00, 187500.00, 187500.00, 187500.00, 181197.83, -116046.81, 169102.81, 0.00, 0.00, 0.00
41, 187500.00, 187500.00, 187500.00, 187500.00, 187500.00, 181151.72, -115966.55, 169052.23, 0.00, 0.00, 0.00
42, 187500.00, 187500.00, 187500.00, 187500.00, 187500.00, 181119.00, -115923.54, 169017.31, 0.00, 0.00, 0.00
43, 187500.00, 187500.00, 187500.00, 187500.00, 187500.00, 181160.91, -116008.99, 169064.09, 0.00, 0.00, 0.00
44, 187500.00, 187500.00, 187500.00, 187500.00, 187500.00, 181197.30, -116071.64, 169104.02, 0.00, 0.00, 0.00
45, 187500.00, 187500.00, 187500.00, 187500.00, 187500.00, 181162.88, -116008.10, 169066.00, -240.00, 544.00, 8048.00
46, 187500.00, 187500.00, 187500.00, 187500.00, 187500.00, 181120.38, -115945.53, 169020.16, 0.00, 0.00, 0.00
47, 187500.00, 187500.00, 187500.00, 187500.00, 187500.00, 181154.77, -116017.42, 169058.69, 0.00, 0.00, 0.00
48, 187500.00, 187500.00, 187500.00, 187500.00, 187500.00, 181203.66, -116101.46, 169112.17, 0.00, 0.00, 0.00
49, 187500.00, 187500.00, 187500.00, 187500.00, 187500.00, 181178.94, -116054.59, 169084.70, 0.00, 0.00, 0.00
50, 187500.00, 187500.00, 187500.00, 187500.00, 187500.00, 181129.20, -115976.80, 169030.56, 0.00, 0.00, 0.00
51, 187500.00, 187500.00, 187500.00, 187500.00, 187500.00, 181145.50, -116022.58, 169049.81, 0.00, 0.00, 0.00
52, 187500.00, 187500.00, 187500.00, 187500.00, 187500.00, 181199.17, -116118.56, 169108.98, 0.00, 0.00, 0.00
53, 187500.00, 187500.00, 187500.00, 187500.00, 187500.00, 181187.02, -116093.19, 169095.28, 0.00, 0.00, 0.00
54, 187500.00, 187500.00, 187500.00, 187500.00, 187500.00, 181135.17, -116007.70, 169038.64, 0.00, 0.00, 0.00
55, 187500.00, 187500.00, 187500.00, 187500.00, 187500.00, 181140.45, -116032.55, 169045.45, -256.00, 576.00, 8048.00
56, 187500.00, 187500.00, 187500.00, 187500.00, 187500.00, 181195.50, -116134.01, 169106.28, 0.00, 0.00, 0.00
57, 187500.00, 187500.00, 187500.00, 187500.00, 187500.00, 181200.77, -116136.15, 169111.42, 0.00, 0.00, 0.00
58, 187500.00, 187500.00, 187500.00, 187500.00, 187500.00, 181144.47, -116043.48, 169050.16, 0.00, 0.00, 0.00
59, 187500.00, 187500.00, 187500.00, 187500.00, 187500.00, 181136.27, -116044.33, 169042.17, 0.00, 0.00, 0.00
60, 187500.00, 187500.00, 187500.00, 187500.00, 187500.00, 181190.47, -116146.48, 169102.16, 0.00, 0.00, 0.00
61, 187500.00, 187500.00, 187500.00, 187500.00, 187500.00, 181207.06, -116170.82, 169119.95, 0.00, 0.00, 0.00
62, 187500.00, 187500.00, 187500.00, 187500.00, 187500.00, 181156.59, -116084.30, 169064.70, 0.00, 0.00, 0.00
63, 187500.00, 187500.00, 187500.00, 187500.00, 187500.00, 181135.20, -116060.67, 169042.03, 0.00, 0.00, 0.00
64, 187500.00, 187500.00, 187500.00, 187500.00, 187500.00, 181183.77, -116155.62, 169096.11, 0.00, 0.00, 0.00
65, 187500.00, 187500.00, 187500.00, 187500.00, 187500.00, 181214.55, -116204.84, 169129.72, 0.00, 0.00, 0.00
66, 187500.00, 187500.00, 187500.00, 187500.00, 187500.00, 181170.41, -116127.68, 169081.31, -224.00, 480.00, 8064.00
67, 187500.00, 187500.00, 187500.00, 187500.00, 187500.00, 181134.80, -116079.31, 169043.08, 0.00, 0.00, 0.00
68, 187500.00, 187500.00, 187500.00, 187500.00, 187500.00, 181175.25, -116162.03, 169088.19, 0.00, 0.00, 0.00
69, 187500.00, 187500.00, 187500.00, 187500.00, 187500.00, 181216.09, -116231.41, 169132.98, 0.00, 0.00, 0.00
70, 187500.00, 187500.00, 187500.00, 187500.00, 187500.00, 181184.78, -116172.38, 169098.23, 0.00, 0.00, 0.00
71, 187500.00, 187500.00, 187500.00, 187500.00, 187500.00, 181141.06, -116106.52, 169051.02, 0.00, 0.00, 0.00
72, 187500.00, 187500.00, 187500.00, 187500.00, 187500.00, 181169.38, -116170.51, 169083.03, 0.00, 0.00, 0.00
73, 187500.00, 187500.00, 187500.00, 187500.00, 187500.00, 181216.30, -116254.55, 169134.89, 0.00, 0.00, 0.00
74, 187500.00, 187500.00, 187500.00, 187500.00, 187500.00, 181194.59, -116212.66, 169110.75, 0.00, 0.00, 0.00
75, 187500.00, 187500.00, 187500.00, 187500.00, 187500.00, 181143.89, -116132.30, 169055.58, 0.00, 0.00, 0.00
76, 187500.00, 187500.00, 187500.00, 187500.00, 187500.00, 181162.48, -116178.20, 169076.77, -240.00, 496.00, 8064.00
77, 187500.00, 187500.00, 187500.00, 187500.00, 187500.00, 181217.86, -116277.05, 169137.56, 0.00, 0.00, 0.00
78, 187500.00, 187500.00, 187500.00, 187500.00, 187500.00, 181208.80, -116257.16, 169127.53, 0.00, 0.00, 0.00
79, 187500.00, 187500.00, 187500.00, 187500.00, 187500.00, 181154.88, -116168.59, 169068.61, 0.00, 0.00, 0.00
80, 187500.00, 187500.00, 187500.00, 187500.00, 187500.00, 181155.09, -116185.84, 169069.97, 0.00, 0.00, 0.00
81, 187500.00, 187500.00, 187500.00, 187500.00, 187500.00, 181210.33, -116288.03, 169130.92, 0.00, 0.00, 0.00
82, 187500.00, 187500.00, 187500.00, 187500.00, 187500.00, 181216.34, -116293.38, 169137.28, 0.00, 0.00, 0.00
83, 187500.00, 187500.00, 187500.00, 187500.00, 187500.00, 181162.20, -116202.73, 169078.16, 0.00, 0.00, 0.00
84, 187500.00, 187500.00, 187500.00, 187500.00, 187500.00, 181151.14, -116198.22, 169067.00, 0.00, 0.00, 0.00
85, 187500.00, 187500.00, 187500.00, 187500.00, 187500.00, 181204.41, -116299.30, 169125.97, 0.00, 0.00, 0.00
86, 187500.00, 187500.00, 187500.00, 187500.00, 187500.00, 181222.95, -116328.22, 169146.23, -224.00, 512.00, 8000.00
87, 187500.00, 187500.00, 187500.00, 187500.00, 187500.00, 181173.64, -116243.26, 169092.23, 0.00, 0.00, 0.00
88, 187500.00, 187500.00, 187500.00, 187500.00, 187500.00, 181149.19, -116213.96, 169066.16, 0.00, 0.00, 0.00
89, 187500.00, 187500.00, 187500.00, 187500.00, 187500.00, 181196.80, -116307.16, 169119.06, 0.00, 0.00, 0.00
90, 187500.00, 187500.00, 187500.00, 187500.00, 187500.00, 181229.59, -116360.90, 169154.91, 0.00, 0.00, 0.00
91, 187500.00, 187500.00, 187500.00, 187500.00, 187500.00, 181188.95, -116288.16, 169110.00, 0.00, 0.00, 0.00
92, 187500.00, 187500.00, 187500.00, 187500.00, 187500.00, 181152.13, -116236.17, 169070.31, 0.00, 0.00, 0.00
93, 187500.00, 187500.00, 187500.00, 187500.00, 187500.00, 181191.91, -116316.98, 169114.67, 0.00, 0.00, 0.00
94, 187500.00, 187500.00, 187500.00, 187500.00, 187500.00, 181234.38, -116390.24, 169161.33, 0.00, 0.00, 0.00
95, 187500.00, 187500.00, 187500.00, 187500.00, 187500.00, 181202.39, -116332.24, 169126.13, 0.00, 0.00, 0.00
96, 187500.00, 187500.00, 187500.00, 187500.00, 187500.00, 181157.78, -116263.45, 169077.70, -272.00, 512.00, 8016.00
97, 187500.00, 187500.00, 187500.00, 187500.00, 187500.00, 181184.44, -116323.84, 169107.91, 0.00, 0.00, 0.00
98, 187500.00, 187500.00, 187500.00, 187500.00, 187500.00, 181234.22, -116412.38, 169162.64, 0.00, 0.00, 0.00
99, 187500.00, 187500.00, 187500.00, 187500.00, 187500.00, 181216.50, -116376.72, 169142.84, 0.00, 0.00, 0.00
100, 187500.00, 187500.00, 187500.00, 187500.00, 187500.00, 181161.17, -116290.34, 169082.92, 0.00, 0.00, 0.00
101, 187500.00, 187500.00, 187500.00, 187500.00, 187500.00, 181174.38, -116328.38, 169098.36, 0.00, 0.00, 0.00
102, 187500.00, 187500.00, 187500.00, 187500.00, 187500.00, 181230.33, -116429.07, 169160.05, 0.00, 0.00, 0.00
103, 187500.00, 187500.00, 187500.00, 187500.00, 187500.00, 181226.39, -116416.62, 169155.31, 0.00, 0.00, 0.00
104, 187500.00, 187500.00, 187500.00, 187500.00, 187500.00, 181173.05, -116327.77, 169097.06, 0.00, 0.00, 0.00
105, 187500.00, 187500.00, 187500.00, 187500.00, 187500.00, 181171.70, -116340.98, 169096.59, 0.00, 0.00, 0.00
106, 187500.00, 187500.00, 187500.00, 187500.00, 187500.00, 181226.81, -116443.76, 169157.59, -224.00, 496.00, 8016.00
107, 187500.00, 187500.00, 187500.00, 187500.00, 187500.00, 181236.86, -116455.96, 169168.20, 0.00, 0.00, 0.00
108, 187500.00, 187500.00, 187500.00, 187500.00, 187500.00, 181182.81, -116365.32, 169109.11, 0.00, 0.00, 0.00
109, 187500.00, 187500.00, 187500.00, 187500.00, 187500.00, 181167.16, -116353.27, 169092.95, 0.00, 0.00, 0.00
110, 187500.00, 187500.00, 187500.00, 187500.00, 187500.00, 181219.09, -116452.74, 169150.48, 0.00, 0.00, 0.00
111, 187500.00, 187500.00, 187500.00, 187500.00, 187500.00, 181243.72, -116490.27, 169177.06, 0.00, 0.00, 0.00
112, 187500.00, 187500.00, 187500.00, 187500.00, 187500.00, 181196.41, -116407.79, 169125.16, 0.00, 0.00, 0.00
113, 187500.00, 187500.00, 187500.00, 187500.00, 187500.00, 181167.23, -116371.25, 169094.16, 0.00, 0.00, 0.00
114, 187500.00, 187500.00, 187500.00, 187500.00, 187500.00, 181213.23, -116461.97, 169145.34, 0.00, 0.00, 0.00
115, 187500.00, 187500.00, 187500.00, 187500.00, 187500.00, 181248.55, -116520.69, 169183.95, 0.00, 0.00, 0.00
116, 187500.00, 187500.00, 187500.00, 187500.00, 187500.00, 181207.53, -116448.98, 169139.02, 0.00, 0.00, 0.00
117, 187500.00, 187500.00, 187500.00, 187500.00, 187500.00, 181165.63, -116389.48, 169093.91, -240.00, 480.00, 8080.00
118, 187500.00, 187500.00, 187500.00, 187500.00, 187500.00, 181202.33, -116465.50, 169134.91, 0.00, 0.00, 0.00
119, 187500.00, 187500.00, 187500.00, 187500.00, 187500.00, 181248.53, -116544.72, 169185.59, 0.00, 0.00, 0.00
120, 187500.00, 187500.00, 187500.00, 187500.00, 187500.00, 181221.36, -116493.38, 169155.56, 0.00, 0.00, 0.00
121, 187500.00, 187500.00, 187500.00, 187500.00, 187500.00, 181174.27, -116420.29, 169104.27, 0.00, 0.00, 0.00
122, 187500.00, 187500.00, 187500.00, 187500.00, 187500.00, 181195.44, -116473.02, 169128.78, 0.00, 0.00, 0.00
123, 187500.00, 187500.00, 187500.00, 187500.00, 187500.00, 181248.09, -116566.02, 169186.55, 0.00, 0.00, 0.00
124, 187500.00, 187500.00, 187500.00, 187500.00, 187500.00, 181235.11, -116537.55, 169171.81, 0.00, 0.00, 0.00
125, 187500.00, 187500.00, 187500.00, 187500.00, 187500.00, 181182.36, -116452.61, 169114.39, 0.00, 0.00, 0.00
126, 187500.00, 187500.00, 187500.00, 187500.00, 187500.00, 181191.58, -116484.13, 169125.59, 0.00, 0.00, 0.00
127, 187500.00, 187500.00, 187500.00, 187500.00, 187500.00, 181245.95, -116583.84, 169185.53, -256.00, 480.00, 8096.00
128, 187500.00, 187500.00, 187500.00, 187500.00, 187500.00, 181243.27, -116575.02, 169182.45, 0.00, 0.00, 0.00
129, 187500.00, 187500.00, 187500.00, 187500.00, 187500.00, 181189.38, -116485.27, 169123.53, 0.00, 0.00, 0.00
130, 187500.00, 187500.00, 187500.00, 187500.00, 187500.00, 181186.77, -116494.59, 169121.47, 0.00, 0.00, 0.00
131, 187500.00, 187500.00, 187500.00, 187500.00, 187500.00, 181243.19, -116598.70, 169183.66, 0.00, 0.00, 0.00
132, 187500.00, 187500.00, 187500.00, 187500.00, 187500.00, 181255.72, -116616.09, 169197.20, 0.00, 0.00, 0.00
133, 187500.00, 187500.00, 187500.00, 187500.00, 187500.00, 181203.19, -116527.17, 169139.67, 0.00, 0.00, 0.00
134, 187500.00, 187500.00, 187500.00, 187500.00, 187500.00, 181182.66, -116507.64, 169118.30, 0.00, 0.00, 0.00
135, 187500.00, 187500.00, 187500.00, 187500.00, 187500.00, 181234.42, -116606.30, 169175.67, 0.00, 0.00, 0.00
136, 187500.00, 187500.00, 187500.00, 187500.00, 187500.00, 181261.06, -116648.32, 169204.69, 0.00, 0.00, 0.00
137, 187500.00, 187500.00, 187500.00, 187500.00, 187500.00, 181216.00, -116569.15, 169155.16, -224.00, 480.00, 8016.00
138, 187500.00, 187500.00, 187500.00, 187500.00, 187500.00, 181184.98, -116528.18, 169121.94, 0.00, 0.00, 0.00
139, 187500.00, 187500.00, 187500.00, 187500.00, 187500.00, 181228.31, -116615.15, 169170.31, 0.00, 0.00, 0.00
140, 187500.00, 187500.00, 187500.00, 187500.00, 187500.00, 181264.69, -116677.42, 169210.05, 0.00, 0.00, 0.00
141, 187500.00, 187500.00, 187500.00, 187500.00, 187500.00, 181228.45, -116611.98, 169170.17, 0.00, 0.00, 0.00
142, 187500.00, 187500.00, 187500.00, 187500.00, 187500.00, 181186.25, -116550.13, 169124.72, 0.00, 0.00, 0.00
143, 187500.00, 187500.00, 187500.00, 187500.00, 187500.00, 181217.80, -116619.04, 169160.19, 0.00, 0.00, 0.00
144, 187500.00, 187500.00, 187500.00, 187500.00, 187500.00, 181263.83, -116699.77, 169210.83, 0.00, 0.00, 0.00
145, 187500.00, 187500.00, 187500.00, 187500.00, 187500.00, 181240.23, -116654.06, 169184.73, 0.00, 0.00, 0.00
146, 187500.00, 187500.00, 187500.00, 187500.00, 187500.00, 181191.55, -116577.69, 169131.80, 0.00, 0.00, 0.00
147, 187500.00, 187500.00, 187500.00, 187500.00, 187500.00, 181209.23, -116624.80, 169152.30, -224.00, 496.00, 8048.00
148, 187500.00, 187500.00, 187500.00, 187500.00, 187500.00, 181262.20, -116719.69, 169210.64, 0.00, 0.00, 0.00
149, 187500.00, 187500.00, 187500.00, 187500.00, 187500.00, 181251.61, -116695.68, 169198.63, 0.00, 0.00, 0.00
150, 187500.00, 187500.00, 187500.00, 187500.00, 187500.00, 181196.78, -116607.57, 169139.00, 0.00, 0.00, 0.00
151, 187500.00, 187500.00, 187500.00, 187500.00, 187500.00, 181202.86, -116633.32, 169146.66, 0.00, 0.00, 0.00
152, 187500.00, 187500.00, 187500.00, 187500.00, 187500.00, 181258.88, -116735.55, 169208.59, 0.00, 0.00, 0.00
153, 187500.00, 187500.00, 187500.00, 187500.00, 187500.00, 181261.38, -116734.71, 169210.92, 0.00, 0.00, 0.00
154, 187500.00, 187500.00, 187500.00, 187500.00, 187500.00, 181208.06, -116645.16, 169152.52, 0.00, 0.00, 0.00
155, 187500.00, 187500.00, 187500.00, 187500.00, 187500.00, 181201.16, -116647.52, 169145.77, 0.00, 0.00, 0.00
156, 187500.00, 187500.00, 187500.00, 187500.00, 187500.00, 181254.73, -116748.92, 169205.06, 0.00, 0.00, 0.00
157, 187500.00, 187500.00, 187500.00, 187500.00, 187500.00, 181271.36, -116772.82, 169223.00, -240.00, 464.00, 8032.00
158, 187500.00, 187500.00, 187500.00, 187500.00, 187500.00, 181219.69, -116685.11, 169166.41, 0.00, 0.00, 0.00
159, 187500.00, 187500.00, 187500.00, 187500.00, 187500.00, 181199.86, -116663.45, 169145.44, 0.00, 0.00, 0.00
160, 187500.00, 187500.00, 187500.00, 187500.00, 187500.00, 181248.69, -116758.67, 169199.69, 0.00, 0.00, 0.00
161, 187500.00, 187500.00, 187500.00, 187500.00, 187500.00, 181275.75, -116803.80, 169229.45, 0.00, 0.00, 0.00
162, 187500.00, 187500.00, 187500.00, 187500.00, 187500.00, 181232.77, -116727.66, 169182.27, 0.00, 0.00, 0.00
163, 187500.00, 187500.00, 187500.00, 187500.00, 187500.00, 181198.70, -116681.13, 169145.72, 0.00, 0.00, 0.00
164, 187500.00, 187500.00, 187500.00, 187500.00, 187500.00, 181238.11, -116762.98, 169190.00, 0.00, 0.00, 0.00
165, 187500.00, 187500.00, 187500.00, 187500.00, 187500.00, 181279.33, -116832.34, 169235.05, 0.00, 0.00, 0.00
166, 187500.00, 187500.00, 187500.00, 187500.00, 187500.00, 181245.97, -116771.19, 169198.08, 0.00, 0.00, 0.00
167, 187500.00, 187500.00, 187500.00, 187500.00, 187500.00, 181203.02, -116706.39, 169151.67, 0.00, 0.00, 0.00
168, 187500.00, 187500.00, 187500.00, 187500.00, 187500.00, 181232.70, -116771.72, 169185.13, -240.00, 464.00, 8016.00
169, 187500.00, 187500.00, 187500.00, 187500.00, 187500.00, 181281.33, -116857.02, 169238.48, 0.00, 0.00, 0.00
170, 187500.00, 187500.00, 187500.00, 187500.00, 187500.00, 181258.73, -116814.02, 169213.42, 0.00, 0.00, 0.00
171, 187500.00, 187500.00, 187500.00, 187500.00, 187500.00, 181206.09, -116731.83, 169156.39, 0.00, 0.00, 0.00
172, 187500.00, 187500.00, 187500.00, 187500.00, 187500.00, 181222.81, -116776.13, 169175.56, 0.00, 0.00, 0.00
173, 187500.00, 187500.00, 187500.00, 187500.00, 187500.00, 181277.58, -116874.27, 169235.92, 0.00, 0.00, 0.00
174, 187500.00, 187500.00, 187500.00, 187500.00, 187500.00, 181269.16, -116854.60, 169226.45, 0.00, 0.00, 0.00
175, 187500.00, 187500.00, 187500.00, 187500.00, 187500.00, 181214.84, -116765.87, 169167.30, 0.00, 0.00, 0.00
176, 187500.00, 187500.00, 187500.00, 187500.00, 187500.00, 181217.67, -116785.96, 169171.36, 0.00, 0.00, 0.00
177, 187500.00, 187500.00, 187500.00, 187500.00, 187500.00, 181272.39, -116887.57, 169231.84, 0.00, 0.00, 0.00
178, 187500.00, 187500.00, 187500.00, 187500.00, 187500.00, 181277.47, -116891.66, 169237.17, -256.00, 480.00, 8000.00
179, 187500.00, 187500.00, 187500.00, 187500.00, 187500.00, 181225.56, -116803.26, 169180.34, 0.00, 0.00, 0.00
180, 187500.00, 187500.00, 187500.00, 187500.00, 187500.00, 181216.52, -116801.02, 169171.20, 0.00, 0.00, 0.00
181, 187500.00, 187500.00, 187500.00, 187500.00, 187500.00, 181270.78, -116902.99, 169231.00, 0.00, 0.00, 0.00
182, 187500.00, 187500.00, 187500.00, 187500.00, 187500.00, 181290.33, -116932.50, 169252.13, 0.00, 0.00, 0.00
183, 187500.00, 187500.00, 187500.00, 187500.00, 187500.00, 181239.89, -116846.27, 169196.86, 0.00, 0.00, 0.00
184, 187500.00, 187500.00, 187500.00, 187500.00, 187500.00, 181214.11, -116815.94, 169169.64, 0.00, 0.00, 0.00
185, 187500.00, 187500.00, 187500.00, 187500.00, 187500.00, 181261.44, -116909.01, 169222.39, 0.00, 0.00, 0.00
186, 187500.00, 187500.00, 187500.00, 187500.00, 187500.00, 181295.16, -116963.27, 169259.11, 0.00, 0.00, 0.00
187, 187500.00, 187500.00, 187500.00, 187500.00, 187500.00, 181252.39, -116888.27, 169212.17, 0.00, 0.00, 0.00
188, 187500.00, 187500.00, 187500.00, 187500.00, 187500.00, 181215.53, -116836.63, 169172.48, -272.00, 432.00, 8016.00
189, 187500.00, 187500.00, 187500.00, 187500.00, 187500.00, 181254.78, -116916.96, 169216.31, 0.00, 0.00, 0.00
190, 187500.00, 187500.00, 187500.00, 187500.00, 187500.00, 181295.19, -116987.82, 169260.88, 0.00, 0.00, 0.00
191, 187500.00, 187500.00, 187500.00, 187500.00, 187500.00, 181263.72, -116930.11, 169226.14, 0.00, 0.00, 0.00
192, 187500.00, 187500.00, 187500.00, 187500.00, 187500.00, 181218.42, -116860.86, 169177.11, 0.00, 0.00, 0.00
193, 187500.00, 187500.00, 187500.00, 187500.00, 187500.00, 181245.02, -116921.37, 169207.17, 0.00, 0.00, 0.00
194, 187500.00, 187500.00, 187500.00, 187500.00, 187500.00, 181295.08, -117009.95, 169262.22, 0.00, 0.00, 0.00
195, 187500.00, 187500.00, 187500.00, 187500.00, 187500.00, 181276.39, -116973.05, 169241.39, 0.00, 0.00, 0.00
196, 187500.00, 187500.00, 187500.00, 187500.00, 187500.00, 181224.88, -116890.66, 169185.38, 0.00, 0.00, 0.00
197, 187500.00, 187500.00, 187500.00, 187500.00, 187500.00, 181241.77, -116932.61, 169204.55, 0.00, 0.00, 0.00
198, 187500.00, 187500.00, 187500.00, 187500.00, 187500.00, 181297.09, -117032.32, 169265.47, -256.00, 480.00, 8032.00
199, 187500.00, 187500.00, 187500.00, 187500.00, 187500.00, 181290.88, -117017.10, 169258.33, 0.00, 0.00, 0.00
200, 187500.00, 187500.00, 187500.00, 187500.00, 187500.00, 181233.17, -116924.12, 169195.80, 0.00, 0.00, 0.00
201, 187500.00, 187500.00, 187500.00, 187500.00, 187500.00, 181233.70, -116939.67, 169197.33, 0.00, 0.00, 0.00
202, 187500.00, 187500.00, 187500.00, 187500.00, 187500.00, 181290.72, -117043.97, 169260.05, 0.00, 0.00, 0.00
203, 187500.00, 187500.00, 187500.00, 187500.00, 187500.00, 181300.48, -117055.43, 169270.41, 0.00, 0.00, 0.00
204, 187500.00, 187500.00, 187500.00, 187500.00, 187500.00, 181246.42, -116964.88, 169211.38, 0.00, 0.00, 0.00
205, 187500.00, 187500.00, 187500.00, 187500.00, 187500.00, 181233.48, -116955.86, 169198.03, 0.00, 0.00, 0.00
206, 187500.00, 187500.00, 187500.00, 187500.00, 187500.00, 181285.45, -117055.41, 169255.53, 0.00, 0.00, 0.00
207, 187500.00, 187500.00, 187500.00, 187500.00, 187500.00, 181307.75, -117090.30, 169279.88, 0.00, 0.00, 0.00
208, 187500.00, 187500.00, 187500.00, 187500.00, 187500.00, 181260.14, -117007.29, 169227.63, -240.00, 480.00, 8064.00
209, 187500.00, 187500.00, 187500.00, 187500.00, 187500.00, 181233.23, -116973.34, 169198.91, 0.00, 0.00, 0.00
210, 187500.00, 187500.00, 187500.00, 187500.00, 187500.00, 181278.39, -117063.32, 169249.33, 0.00, 0.00, 0.00
211, 187500.00, 187500.00, 187500.00, 187500.00, 187500.00, 181311.94, -117119.76, 169285.83, 0.00, 0.00, 0.00
212, 187500.00, 187500.00, 187500.00, 187500.00, 187500.00, 181272.33, -117049.47, 169242.34, 0.00, 0.00, 0.00
213, 187500.00, 187500.00, 187500.00, 187500.00, 187500.00, 181234.83, -116994.77, 169201.94, 0.00, 0.00, 0.00
214, 187500.00, 187500.00, 187500.00, 187500.00, 187500.00, 181271.39, -117070.90, 169242.80, 0.00, 0.00, 0.00
215, 187500.00, 187500.00, 187500.00, 187500.00, 187500.00, 181316.41, -117148.44, 169292.17, 0.00, 0.00, 0.00
216, 187500.00, 187500.00, 187500.00, 187500.00, 187500.00, 181286.77, -117094.19, 169259.67, 0.00, 0.00, 0.00
217, 187500.00, 187500.00, 187500.00, 187500.00, 187500.00, 181238.11, -117019.60, 169206.88, 0.00, 0.00, 0.00
218, 187500.00, 187500.00, 187500.00, 187500.00, 187500.00, 181261.20, -117074.66, 169233.28, 0.00, 0.00, 0.00
219, 187500.00, 187500.00, 187500.00, 187500.00, 187500.00, 181312.05, -117165.67, 169289.27, -256.00, 496.00, 8096.00
220, 187500.00, 187500.00, 187500.00, 187500.00, 187500.00, 181296.25, -117133.80, 169271.61, 0.00, 0.00, 0.00
221, 187500.00, 187500.00, 187500.00, 187500.00, 187500.00, 181244.88, -117050.20, 169215.53, 0.00, 0.00, 0.00
222, 187500.00, 187500.00, 187500.00, 187500.00, 187500.00, 181256.53, -117084.76, 169229.36, 0.00, 0.00, 0.00
223, 187500.00, 187500.00, 187500.00, 187500.00, 187500.00, 181311.94, -117185.54, 169290.41, 0.00, 0.00, 0.00
224, 187500.00, 187500.00, 187500.00, 187500.00, 187500.00, 181307.42, -117174.59, 169285.47, 0.00, 0.00, 0.00
225, 187500.00, 187500.00, 187500.00, 187500.00, 187500.00, 181252.28, -117083.62, 169225.28, 0.00, 0.00, 0.00
226, 187500.00, 187500.00, 187500.00, 187500.00, 187500.00, 181249.19, -117092.72, 169222.73, 0.00, 0.00, 0.00
227, 187500.00, 187500.00, 187500.00, 187500.00, 187500.00, 181304.22, -117195.47, 169283.52, 0.00, 0.00, 0.00
228, 187500.00, 187500.00, 187500.00, 187500.00, 187500.00, 181316.81, -117212.37, 169297.05, 0.00, 0.00, 0.00
229, 187500.00, 187500.00, 187500.00, 187500.00, 187500.00, 181266.89, -117125.87, 169242.17, -208.00, 528.00, 8048.00
230, 187500.00, 187500.00, 187500.00, 187500.00, 187500.00, 181246.78, -117107.09, 169221.30, 0.00, 0.00, 0.00
231, 187500.00, 187500.00, 187500.00, 187500.00, 187500.00, 181295.53, -117202.95, 169275.64, 0.00, 0.00, 0.00
232, 187500.00, 187500.00, 187500.00, 187500.00, 187500.00, 181323.64, -117246.16, 169306.05, 0.00, 0.00, 0.00
233, 187500.00, 187500.00, 187500.00, 187500.00, 187500.00, 181278.44, -117166.55, 169256.44, 0.00, 0.00, 0.00
234, 187500.00, 187500.00, 187500.00, 187500.00, 187500.00, 181248.28, -117126.65, 169224.11, 0.00, 0.00, 0.00
235, 187500.00, 187500.00, 187500.00, 187500.00, 187500.00, 181290.20, -117212.41, 169271.08, 0.00, 0.00, 0.00
236, 187500.00, 187500.00, 187500.00, 187500.00, 187500.00, 181325.81, -117273.66, 169310.14, 0.00, 0.00, 0.00
237, 187500.00, 187500.00, 187500.00, 187500.00, 187500.00, 181289.25, -117207.52, 169269.78, 0.00, 0.00, 0.00
238, 187500.00, 187500.00, 187500.00, 187500.00, 187500.00, 181250.88, -117149.63, 169228.09, 0.00, 0.00, 0.00
239, 187500.00, 187500.00, 187500.00, 187500.00, 187500.00, 181283.66, -117220.14, 169265.02, -192.00, 512.00, 8064.00
240, 187500.00, 187500.00, 187500.00, 187500.00, 187500.00, 181329.81, -117300.85, 169315.78, 0.00, 0.00, 0.00
241, 187500.00, 187500.00, 187500.00, 187500.00, 187500.00, 181303.69, -117252.27, 169287.08, 0.00, 0.00, 0.00
242, 187500.00, 187500.00, 187500.00, 187500.00, 187500.00, 181254.83, -117175.66, 169233.80, 0.00, 0.00, 0.00
243, 187500.00, 187500.00, 187500.00, 187500.00, 187500.00, 181276.70, -117227.34, 169258.59, 0.00, 0.00, 0.00
244, 187500.00, 187500.00, 187500.00, 187500.00, 187500.00, 181331.38, -117323.84, 169318.81, 0.00, 0.00, 0.00
245, 187500.00, 187500.00, 187500.00, 187500.00, 187500.00, 181318.53, -117297.16, 169304.47, 0.00, 0.00, 0.00
246, 187500.00, 187500.00, 187500.00, 187500.00, 187500.00, 181263.91, -117209.21, 169245.02, 0.00, 0.00, 0.00
247, 187500.00, 187500.00, 187500.00, 187500.00, 187500.00, 181271.33, -117236.82, 169254.16, 0.00, 0.00, 0.00
248, 187500.00, 187500.00, 187500.00, 187500.00, 187500.00, 181326.38, -117338.02, 169315.06, 0.00, 0.00, 0.00
249, 187500.00, 187500.00, 187500.00, 187500.00, 187500.00, 181328.59, -117336.22, 169316.94, -192.00, 528.00, 8032.00
250, 187500.00, 187500.00, 187500.00, 187500.00, 187500.00, 181273.56, -117244.98, 169256.97, 0.00, 0.00, 0.00
251, 187500.00, 187500.00, 187500.00, 187500.00, 187500.00, 181266.25, -117247.44, 169250.05, 0.00, 0.00, 0.00
252, 187500.00, 187500.00, 187500.00, 187500.00, 187500.00, 181320.05, -117349.20, 169309.67, 0.00, 0.00, 0.00
253, 187500.00, 187500.00, 187500.00, 187500.00, 187500.00, 181336.52, -117372.63, 169327.28, 0.00, 0.00, 0.00
254, 187500.00, 187500.00, 187500.00, 187500.00, 187500.00, 181287.13, -117286.91, 169273.00, 0.00, 0.00, 0.00
255, 187500.00, 187500.00, 187500.00, 187500.00, 187500.00, 181267.48, -117265.77, 169252.33, 0.00, 0.00, 0.00
0, 187500.00, 187500.00, 187500.00, 187500.00, 187500.00, 181315.31, -117360.06, 169305.61, 0.00, 0.00, 0.00
1, 187500.00, 187500.00, 187500.00, 187500.00, 187500.00, 181342.95, -117405.48, 169335.89, 0.00, 0.00, 0.00
2, 187500.00, 187500.00, 187500.00, 187500.00, 187500.00, 181299.47, -117328.52, 169288.16, 0.00, 0.00, 0.00
3, 187500.00, 187500.00, 187500.00, 187500.00, 187500.00, 181264.17, -117281.01, 169250.38, -240.00, 528.00, 8064.00
4, 187500.00, 187500.00, 187500.00, 187500.00, 187500.00, 181303.69, -117363.22, 169294.66, 0.00, 0.00, 0.00
5, 187500.00, 187500.00, 187500.00, 187500.00, 187500.00, 181344.69, -117432.06, 169339.38, 0.00, 0.00, 0.00
6, 187500.00, 187500.00, 187500.00, 187500.00, 187500.00, 181311.56, -117370.88, 169302.88, 0.00, 0.00, 0.00
7, 187500.00, 187500.00, 187500.00, 187500.00, 187500.00, 181268.03, -117305.73, 169255.77, 0.00, 0.00, 0.00
8, 187500.00, 187500.00, 187500.00, 187500.00, 187500.00, 181297.30, -117370.88, 169288.83, 0.00, 0.00, 0.00
9, 187500.00, 187500.00, 187500.00, 187500.00, 187500.00, 181347.67, -117457.79, 169343.98, 0.00, 0.00, 0.00
10, 187500.00, 187500.00, 187500.00, 187500.00, 187500.00, 181325.80, -117415.19, 169319.67, 0.00, 0.00, 0.00
11, 187500.00, 187500.00, 187500.00, 187500.00, 187500.00, 181275.14, -117335.21, 169264.55, 0.00, 0.00, 0.00
12, 187500.00, 187500.00, 187500.00, 187500.00, 187500.00, 181291.94, -117379.87, 169283.97, 0.00, 0.00, 0.00
13, 187500.00, 187500.00, 187500.00, 187500.00, 187500.00, 181345.08, -117476.20, 169342.69, 0.00, 0.00, 0.00
14, 187500.00, 187500.00, 187500.00, 187500.00, 187500.00, 181334.41, -117453.88, 169330.95, -272.00, 512.00, 8048.00
15, 187500.00, 187500.00, 187500.00, 187500.00, 187500.00, 181282.23, -117367.30, 169273.89, 0.00, 0.00, 0.00
16, 187500.00, 187500.00, 187500.00, 187500.00, 187500.00, 181286.00, -117388.88, 169278.98, 0.00, 0.00, 0.00
17, 187500.00, 187500.00, 187500.00, 187500.00, 187500.00, 181342.36, -117492.08, 169341.13, 0.00, 0.00, 0.00
18, 187500.00, 187500.00, 187500.00, 187500.00, 187500.00, 181348.22, -117496.45, 169347.11, 0.00, 0.00, 0.00
19, 187500.00, 187500.00, 187500.00, 187500.00, 187500.00, 181294.36, -117406.09, 169288.27, 0.00, 0.00, 0.00
20, 187500.00, 187500.00, 187500.00, 187500.00, 187500.00, 181284.13, -117403.02, 169278.05, 0.00, 0.00, 0.00
21, 187500.00, 187500.00, 187500.00, 187500.00, 187500.00, 181336.19, -117502.83, 169335.78, 0.00, 0.00, 0.00
22, 187500.00, 187500.00, 187500.00, 187500.00, 187500.00, 181351.86, -117527.99, 169353.08, 0.00, 0.00, 0.00
23, 187500.00, 187500.00, 187500.00, 187500.00, 187500.00, 181300.80, -117441.05, 169297.31, 0.00, 0.00, 0.00
24, 187500.00, 187500.00, 187500.00, 187500.00, 187500.00, 181277.98, -117414.09, 169272.95, -208.00, 512.00, 8096.00
25, 187500.00, 187500.00, 187500.00, 187500.00, 187500.00, 181327.38, -117509.38, 169327.67, 0.00, 0.00, 0.00
26, 187500.00, 187500.00, 187500.00, 187500.00, 187500.00, 181358.50, -117560.74, 169361.75, 0.00, 0.00, 0.00
27, 187500.00, 187500.00, 187500.00, 187500.00, 187500.00, 181317.19, -117487.02, 169316.31, 0.00, 0.00, 0.00
28, 187500.00, 187500.00, 187500.00, 187500.00, 187500.00, 181280.31, -117435.59, 169276.75, 0.00, 0.00, 0.00
29, 187500.00, 187500.00, 187500.00, 187500.00, 187500.00, 181318.95, -117515.48, 169319.98, 0.00, 0.00, 0.00
30, 187500.00, 187500.00, 187500.00, 187500.00, 187500.00, 181361.16, -117587.85, 169366.38, 0.00, 0.00, 0.00
31, 187500.00, 187500.00, 187500.00, 187500.00, 187500.00, 181328.66, -117528.80, 169330.58, 0.00, 0.00, 0.00
32, 187500.00, 187500.00, 187500.00, 187500.00, 187500.00, 181285.27, -117461.56, 169283.44, 0.00, 0.00, 0.00
33, 187500.00, 187500.00, 187500.00, 187500.00, 187500.00, 181313.75, -117524.15, 169315.44, 0.00, 0.00, 0.00
34, 187500.00, 187500.00, 187500.00, 187500.00, 187500.00, 181364.38, -117613.02, 169370.92, -208.00, 496.00, 8048.00
35, 187500.00, 187500.00, 187500.00, 187500.00, 187500.00, 181345.31, -117575.34, 169349.69, 0.00, 0.00, 0.00
36, 187500.00, 187500.00, 187500.00, 187500.00, 187500.00, 181290.83, -117490.29, 169290.83, 0.00, 0.00, 0.00
37, 187500.00, 187500.00, 187500.00, 187500.00, 187500.00, 181302.97, -117527.97, 169305.27, 0.00, 0.00, 0.00
38, 187500.00, 187500.00, 187500.00, 187500.00, 187500.00, 181356.95, -117626.14, 169364.80, 0.00, 0.00, 0.00
39, 187500.00, 187500.00, 187500.00, 187500.00, 187500.00, 181353.89, -117613.83, 169360.97, 0.00, 0.00, 0.00
40, 187500.00, 187500.00, 187500.00, 187500.00, 187500.00, 181301.44, -117526.12, 169303.66, 0.00, 0.00, 0.00
41, 187500.00, 187500.00, 187500.00, 187500.00, 187500.00, 181300.16, -117539.98, 169303.34, 0.00, 0.00, 0.00
42, 187500.00, 187500.00, 187500.00, 187500.00, 187500.00, 181354.38, -117641.52, 169363.34, 0.00, 0.00, 0.00
43, 187500.00, 187500.00, 187500.00, 187500.00, 187500.00, 181364.28, -117652.90, 169373.88, 0.00, 0.00, 0.00
44, 187500.00, 187500.00, 187500.00, 187500.00, 187500.00, 181312.42, -117564.45, 169316.98, -256.00, 480.00, 8032.00
45, 187500.00, 187500.00, 187500.00, 187500.00, 187500.00, 181297.05, -117553.32, 169301.06, 0.00, 0.00, 0.00
46, 187500.00, 187500.00, 187500.00, 187500.00, 187500.00, 181349.44, -117653.34, 169359.20, 0.00, 0.00, 0.00
47, 187500.00, 187500.00, 187500.00, 187500.00, 187500.00, 181371.80, -117687.77, 169383.28, 0.00, 0.00, 0.00
48, 187500.00, 187500.00, 187500.00, 187500.00, 187500.00, 181324.52, -117605.09, 169331.42, 0.00, 0.00, 0.00
49, 187500.00, 187500.00, 187500.00, 187500.00, 187500.00, 181296.02, -117569.77, 169301.22, 0.00, 0.00, 0.00
50, 187500.00, 187500.00, 187500.00, 187500.00, 187500.00, 181339.78, -117658.55, 169350.16, 0.00, 0.00, 0.00
51, 187500.00, 187500.00, 187500.00, 187500.00, 187500.00, 181374.25, -117715.73, 169387.81, 0.00, 0.00, 0.00
