%OpenBCI Raw EEG Data
%
%Sample Rate = 250.0 Hz
%First Column = SampleIndex
%Other Columns = EEG data in microvolts with optional columns at end being unscaled Aux data
0, -183699.81, -187500.02, -187500.02, -187500.02, -184934.13, 187500.00, -187500.02, -187500.02, -16.00, 0.00, 0.00
1, -183145.58, -187500.02, -187500.02, -187500.02, -184098.48, 187500.00, -187500.02, -187500.02, 0.00, 0.00, 0.00
2, -183603.56, -187500.02, -187500.02, -187500.02, -184747.73, 187500.00, -187500.02, -187500.02, 0.00, 0.00, 0.00
3, -184276.61, -187500.02, -187500.02, -187500.02, -185634.45, 187500.00, -187500.02, -187500.02, 0.00, 0.00, 0.00
4, -183867.14, -187500.02, -187500.02, -187500.02, -185086.55, 187500.00, -187500.02, -187500.02, 0.00, 0.00, 0.00
5, -183180.08, -187500.02, -187500.02, -187500.02, -184087.00, 187500.00, -187500.02, -187500.02, 0.00, 0.00, 0.00
6, -183477.39, -187500.02, -187500.02, -187500.02, -184498.56, 187500.00, -187500.02, -187500.02, 0.00, 0.00, 0.00
7, -184245.41, -187500.02, -187500.02, -187500.02, -185514.16, 187500.00, -187500.02, -187500.02, 0.00, 0.00, 0.00
8, -184017.66, -187500.02, -187500.02, -187500.02, -185215.31, 187500.00, -187500.02, -187500.02, 0.00, 0.00, 0.00
9, -183227.06, -187500.02, -187500.02, -187500.02, -184126.56, 187500.00, -187500.02, -187500.02, 0.00, 0.00, 0.00
10, -183346.19, -187500.02, -187500.02, -187500.02, -184271.66, 187500.00, -187500.02, -187500.02, 0.00, 0.00, 0.00
11, -184160.36, -187500.02, -187500.02, -187500.02, -185342.48, 187500.00, -187500.02, -187500.02, 0.00, 0.00, 0.00
12, -184142.61, -187500.02, -187500.02, -187500.02, -185320.63, 187500.00, -187500.02, -187500.02, 0.00, 0.00, 0.00
13, -183339.34, -187500.02, -187500.02, -187500.02, -184223.31, 187500.00, -187500.02, -187500.02, 0.00, 0.00, 0.00
14, -183254.48, -187500.02, -187500.02, -187500.02, -184086.48, 187500.00, -187500.02, -187500.02, 0.00, 0.00, 0.00
15, -184048.97, -187500.02, -187500.02, -187500.02, -185132.63, 187500.00, -187500.02, -187500.02, 0.00, 0.00, 0.00
16, -184239.23, -187500.02, -187500.02, -187500.02, -185385.86, 187500.00, -187500.02, -187500.02, 0.00, 0.00, 0.00
17, -183482.38, -187500.02, -187500.02, -187500.02, -184266.92, 187500.00, -187500.02, -187500.02, 0.00, 0.00, 0.00
18, -183190.06, -187500.02, -187500.02, -187500.02, -183510.88, 187500.00, -187500.02, -187500.02, 0.00, 0.00, 0.00
19, -183886.72, -187500.02, -187500.02, -187500.02, -184827.27, 187500.00, -187500.02, -187500.02, 0.00, 0.00, 0.00
20, -184278.64, -187500.02, -187500.02, -187500.02, -185708.70, 187500.00, -187500.02, -187500.02, 0.00, 0.00, 0.00
21, -183625.25, -187500.02, -187500.02, -187500.02, -184816.72, 187500.00, -187500.02, -187500.02, 0.00, 0.00, 0.00
22, -183184.86, -187500.02, -187500.02, -187500.02, -184144.48, 187500.00, -187500.02, -187500.02, 0.00, 0.00, 0.00
23, -183757.03, -187500.02, -187500.02, -187500.02, -184945.14, 187500.00, -187500.02, -187500.02, 0.00, 0.00, 0.00
24, -184322.61, -187500.02, -187500.02, -187500.02, -185688.77, 187500.00, -187500.02, -187500.02, 0.00, 0.00, 0.00
25, -183788.47, -187500.02, -187500.02, -187500.02, -184968.88, 187500.00, -187500.02, -187500.02, 0.00, 0.00, 0.00
26, -183190.23, -187500.02, -187500.02, -187500.02, -184089.00, 187500.00, -187500.02, -187500.02, 0.00, 0.00, 0.00
27, -183621.00, -187500.02, -187500.02, -187500.02, -184685.50, 187500.00, -187500.02, -187500.02, 0.00, 0.00, 0.00
28, -184323.39, -187500.02, -187500.02, -187500.02, -185610.98, 187500.00, -187500.02, -187500.02, 0.00, 0.00, 0.00
29, -183950.58, -187500.02, -187500.02, -187500.02, -185120.84, 187500.00, -187500.02, -187500.02, 0.00, 0.00, 0.00
30, -183194.89, -187500.02, -187500.02, -187500.02, -184094.48, 187500.00, -187500.02, -187500.02, 0.00, 0.00, 0.00
31, -183472.55, -187500.02, -187500.02, -187500.02, -184445.16, 187500.00, -187500.02, -187500.02, 0.00, 0.00, 0.00
32, -184262.25, -187500.02, -187500.02, -187500.02, -185477.00, 187500.00, -187500.02, -187500.02, 0.00, 0.00, 0.00
33, -184085.52, -187500.02, -187500.02, -187500.02, -185244.92, 187500.00, -187500.02, -187500.02, 0.00, 0.00, 0.00
34, -183302.89, -187500.02, -187500.02, -187500.02, -184147.67, 187500.00, -187500.02, -187500.02, 0.00, 0.00, 0.00
35, -183369.70, -187500.02, -187500.02, -187500.02, -184227.98, 187500.00, -187500.02, -187500.02, 0.00, 0.00, 0.00
36, -184179.42, -187500.02, -187500.02, -187500.02, -185297.66, 187500.00, -187500.02, -187500.02, 0.00, 0.00, 0.00
37, -184209.84, -187500.02, -187500.02, -187500.02, -185339.88, 187500.00, -187500.02, -187500.02, 0.00, 0.00, 0.00
38, -183408.97, -187500.02, -187500.02, -187500.02, -184250.30, 187500.00, -187500.02, -187500.02, 0.00, 0.00, 0.00
39, -183275.89, -187500.02, -187500.02, -187500.02, -184045.17, 187500.00, -187500.02, -187500.02, 0.00, 0.00, 0.00
40, -184055.02, -187500.02, -187500.02, -187500.02, -185075.33, 187500.00, -187500.02, -187500.02, 0.00, 0.00, 0.00
41, -184296.66, -187500.02, -187500.02, -187500.02, -185392.84, 187500.00, -187500.02, -187500.02, 0.00, 0.00, 0.00
42, -183546.63, -187500.02, -187500.02, -187500.02, -184263.06, 187500.00, -187500.02, -187500.02, 0.00, 0.00, 0.00
43, -183202.47, -187500.02, -187500.02, -187500.02, -183456.20, 187500.00, -187500.02, -187500.02, 0.00, 0.00, 0.00
44, -183883.64, -187500.02, -187500.02, -187500.02, -184780.70, 187500.00, -187500.02, -187500.02, 0.00, 0.00, 0.00
45, -184318.27, -187500.02, -187500.02, -187500.02, -185736.67, 187500.00, -187500.02, -187500.02, 0.00, 0.00, 0.00
46, -183699.69, -187500.02, -187500.02, -187500.02, -184886.72, 187500.00, -187500.02, -187500.02, 0.00, 0.00, 0.00
47, -183229.78, -187500.02, -187500.02, -187500.02, -184157.67, 187500.00, -187500.02, -187500.02, 0.00, 0.00, 0.00
48, -183755.19, -187500.02, -187500.02, -187500.02, -184911.97, 187500.00, -187500.02, -187500.02, 0.00, 0.00, 0.00
49, -184359.66, -187500.02, -187500.02, -187500.02, -185706.73, 187500.00, -187500.02, -187500.02, 0.00, 0.00, 0.00
50, -183859.39, -187500.02, -187500.02, -187500.02, -185038.53, 187500.00, -187500.02, -187500.02, 0.00, 0.00, 0.00
51, -183214.14, -187500.02, -187500.02, -187500.02, -184116.56, 187500.00, -187500.02, -187500.02, 0.00, 0.00, 0.00
52, -183614.34, -187500.02, -187500.02, -187500.02, -184657.03, 187500.00, -187500.02, -187500.02, 0.00, 0.00, 0.00
53, -184344.59, -187500.02, -187500.02, -187500.02, -185616.19, 187500.00, -187500.02, -187500.02, 0.00, 0.00, 0.00
54, -184016.30, -187500.02, -187500.02, -187500.02, -185184.91, 187500.00, -187500.02, -187500.02, 0.00, 0.00, 0.00
55, -183256.88, -187500.02, -187500.02, -187500.02, -184135.00, 187500.00, -187500.02, -187500.02, 0.00, 0.00, 0.00
56, -183478.73, -187500.02, -187500.02, -187500.02, -184419.83, 187500.00, -187500.02, -187500.02, 0.00, 0.00, 0.00
57, -184278.89, -187500.02, -187500.02, -187500.02, -185470.52, 187500.00, -187500.02, -187500.02, 0.00, 0.00, 0.00
58, -184151.02, -187500.02, -187500.02, -187500.02, -185303.38, 187500.00, -187500.02, -187500.02, 0.00, 0.00, 0.00
59, -183363.11, -187500.02, -187500.02, -187500.02, -184202.03, 187500.00, -187500.02, -187500.02, 0.00, 0.00, 0.00
60, -183382.67, -187500.02, -187500.02, -187500.02, -184212.59, 187500.00, -187500.02, -187500.02, 0.00, 0.00, 0.00
61, -184189.41, -187500.02, -187500.02, -187500.02, -185281.27, 187500.00, -187500.02, -187500.02, 0.00, 0.00, 0.00
62, -184271.50, -187500.02, -187500.02, -187500.02, -185391.00, 187500.00, -187500.02, -187500.02, 0.00, 0.00, 0.00
63, -183476.56, -187500.02, -187500.02, -187500.02, -184202.50, 187500.00, -187500.02, -187500.02, 0.00, 0.00, 0.00
64, -183282.22, -187500.02, -187500.02, -187500.02, -183608.36, 187500.00, -187500.02, -187500.02, 0.00, 0.00, 0.00
65, -184030.59, -187500.02, -187500.02, -187500.02, -185044.09, 187500.00, -187500.02, -187500.02, 0.00, 0.00, 0.00
66, -184319.66, -187500.02, -187500.02, -187500.02, -185740.22, 187500.00, -187500.02, -187500.02, 0.00, 0.00, 0.00
67, -183622.45, -187500.02, -187500.02, -187500.02, -184766.75, 187500.00, -187500.02, -187500.02, 0.00, 0.00, 0.00
68, -183263.67, -187500.02, -187500.02, -187500.02, -184224.61, 187500.00, -187500.02, -187500.02, 0.00, 0.00, 0.00
69, -183905.36, -187500.02, -187500.02, -187500.02, -185111.91, 187500.00, -187500.02, -187500.02, 0.00, 0.00, 0.00
70, -184386.95, -187500.02, -187500.02, -187500.02, -185743.97, 187500.00, -187500.02, -187500.02, 0.00, 0.00, 0.00
71, -183777.48, -187500.02, -187500.02, -187500.02, -184920.95, 187500.00, -187500.02, -187500.02, 0.00, 0.00, 0.00
72, -183234.55, -187500.02, -187500.02, -187500.02, -184140.03, 187500.00, -187500.02, -187500.02, 0.00, 0.00, 0.00
73, -183756.56, -187500.02, -187500.02, -187500.02, -184847.56, 187500.00, -187500.02, -187500.02, 0.00, 0.00, 0.00
74, -184398.47, -187500.02, -187500.02, -187500.02, -185688.30, 187500.00, -187500.02, -187500.02, 0.00, 0.00, 0.00
75, -183938.73, -187500.02, -187500.02, -187500.02, -185074.89, 187500.00, -187500.02, -187500.02, 0.00, 0.00, 0.00
76, -183267.44, -187500.02, -187500.02, -187500.02, -184117.02, 187500.00, -187500.02, -187500.02, 0.00, 0.00, 0.00
77, -183623.91, -187500.02, -187500.02, -187500.02, -184598.92, 187500.00, -187500.02, -187500.02, 0.00, 0.00, 0.00
78, -184374.02, -187500.02, -187500.02, -187500.02, -185584.42, 187500.00, -187500.02, -187500.02, 0.00, 0.00, 0.00
79, -184093.97, -187500.02, -187500.02, -187500.02, -185213.97, 187500.00, -187500.02, -187500.02, 0.00, 0.00, 0.00
80, -183332.84, -187500.02, -187500.02, -187500.02, -184141.95, 187500.00, -187500.02, -187500.02, 0.00, 0.00, 0.00
81, -183497.69, -187500.02, -187500.02, -187500.02, -184362.05, 187500.00, -187500.02, -187500.02, 0.00, 0.00, 0.00
82, -184303.38, -187500.02, -187500.02, -187500.02, -185423.86, 187500.00, -187500.02, -187500.02, 0.00, 0.00, 0.00
83, -184226.33, -187500.02, -187500.02, -187500.02, -185323.38, 187500.00, -187500.02, -187500.02, 0.00, 0.00, 0.00
84, -183419.23, -187500.02, -187500.02, -187500.02, -184077.36, 187500.00, -187500.02, -187500.02, 0.00, 0.00, 0.00
85, -183377.75, -187500.02, -187500.02, -187500.02, -183741.64, 187500.00, -187500.02, -187500.02, 0.00, 0.00, 0.00
86, -184170.14, -187500.02, -187500.02, -187500.02, -185285.42, 187500.00, -187500.02, -187500.02, 0.00, 0.00, 0.00
87, -184301.95, -187500.02, -187500.02, -187500.02, -185706.53, 187500.00, -187500.02, -187500.02, 0.00, 0.00, 0.00
88, -183554.02, -187500.02, -187500.02, -187500.02, -184647.67, 187500.00, -187500.02, -187500.02, 0.00, 0.00, 0.00
89, -183332.11, -187500.02, -187500.02, -187500.02, -184305.73, 187500.00, -187500.02, -187500.02, 0.00, 0.00, 0.00
90, -184053.28, -187500.02, -187500.02, -187500.02, -185292.11, 187500.00, -187500.02, -187500.02, 0.00, 0.00, 0.00
91, -184394.42, -187500.02, -187500.02, -187500.02, -185739.33, 187500.00, -187500.02, -187500.02, 0.00, 0.00, 0.00
92, -183703.75, -187500.02, -187500.02, -187500.02, -184793.31, 187500.00, -187500.02, -187500.02, 0.00, 0.00, 0.00
93, -183301.64, -187500.02, -187500.02, -187500.02, -184187.33, 187500.00, -187500.02, -187500.02, 0.00, 0.00, 0.00
94, -183919.16, -187500.02, -187500.02, -187500.02, -185035.38, 187500.00, -187500.02, -187500.02, 0.00, 0.00, 0.00
95, -184444.42, -187500.02, -187500.02, -187500.02, -185724.91, 187500.00, -187500.02, -187500.02, 0.00, 0.00, 0.00
96, -183861.38, -187500.02, -187500.02, -187500.02, -184949.53, 187500.00, -187500.02, -187500.02, 0.00, 0.00, 0.00
97, -183271.61, -187500.02, -187500.02, -187500.02, -184120.70, 187500.00, -187500.02, -187500.02, 0.00, 0.00, 0.00
98, -183766.77, -187500.02, -187500.02, -187500.02, -184775.86, 187500.00, -187500.02, -187500.02, 0.00, 0.00, 0.00
99, -184441.05, -187500.02, -187500.02, -187500.02, -185658.77, 187500.00, -187500.02, -187500.02, 0.00, 0.00, 0.00
100, -184023.73, -187500.02, -187500.02, -187500.02, -185104.33, 187500.00, -187500.02, -187500.02, 0.00, 0.00, 0.00
101, -183325.14, -187500.02, -187500.02, -187500.02, -184110.78, 187500.00, -187500.02, -187500.02, 0.00, 0.00, 0.00
102, -183636.55, -187500.02, -187500.02, -187500.02, -184530.36, 187500.00, -187500.02, -187500.02, 0.00, 0.00, 0.00
103, -184403.72, -187500.02, -187500.02, -187500.02, -185540.55, 187500.00, -187500.02, -187500.02, 0.00, 0.00, 0.00
104, -184172.16, -187500.02, -187500.02, -187500.02, -185233.45, 187500.00, -187500.02, -187500.02, 0.00, 0.00, 0.00
105, -183381.27, -187500.02, -187500.02, -187500.02, -183932.97, 187500.00, -187500.02, -187500.02, 0.00, 0.00, 0.00
106, -183492.30, -187500.02, -187500.02, -187500.02, -183912.56, 187500.00, -187500.02, -187500.02, 0.00, 0.00, 0.00
107, -184291.77, -187500.02, -187500.02, -187500.02, -185515.98, 187500.00, -187500.02, -187500.02, 0.00, 0.00, 0.00
108, -184269.14, -187500.02, -187500.02, -187500.02, -185654.34, 187500.00, -187500.02, -187500.02, 0.00, 0.00, 0.00
109, -183507.19, -187500.02, -187500.02, -187500.02, -184553.36, 187500.00, -187500.02, -187500.02, 0.00, 0.00, 0.00
110, -183421.52, -187500.02, -187500.02, -187500.02, -184425.28, 187500.00, -187500.02, -187500.02, 0.00, 0.00, 0.00
111, -184195.88, -187500.02, -187500.02, -187500.02, -185470.19, 187500.00, -187500.02, -187500.02, 0.00, 0.00, 0.00
112, -184382.13, -187500.02, -187500.02, -187500.02, -185716.59, 187500.00, -187500.02, -187500.02, 0.00, 0.00, 0.00
113, -183624.63, -187500.02, -187500.02, -187500.02, -184678.95, 187500.00, -187500.02, -187500.02, 0.00, 0.00, 0.00
114, -183349.45, -187500.02, -187500.02, -187500.02, -184269.77, 187500.00, -187500.02, -187500.02, 0.00, 0.00, 0.00
115, -184062.91, -187500.02, -187500.02, -187500.02, -185226.31, 187500.00, -187500.02, -187500.02, 0.00, 0.00, 0.00
116, -184454.33, -187500.02, -187500.02, -187500.02, -185738.28, 187500.00, -187500.02, -187500.02, 0.00, 0.00, 0.00
117, -183783.23, -187500.02, -187500.02, -187500.02, -184829.83, 187500.00, -187500.02, -187500.02, 0.00, 0.00, 0.00
118, -183326.16, -187500.02, -187500.02, -187500.02, -184164.38, 187500.00, -187500.02, -187500.02, 0.00, 0.00, 0.00
119, -183921.28, -187500.02, -187500.02, -187500.02, -184968.91, 187500.00, -187500.02, -187500.02, 0.00, 0.00, 0.00
120, -184486.28, -187500.02, -187500.02, -187500.02, -185709.81, 187500.00, -187500.02, -187500.02, 0.00, 0.00, 0.00
121, -183941.16, -187500.02, -187500.02, -187500.02, -184985.95, 187500.00, -187500.02, -187500.02, 0.00, 0.00, 0.00
122, -183316.38, -187500.02, -187500.02, -187500.02, -184110.13, 187500.00, -187500.02, -187500.02, 0.00, 0.00, 0.00
123, -183770.78, -187500.02, -187500.02, -187500.02, -184711.72, 187500.00, -187500.02, -187500.02, 0.00, 0.00, 0.00
124, -184474.02, -187500.02, -187500.02, -187500.02, -185633.31, 187500.00, -187500.02, -187500.02, 0.00, 0.00, 0.00
125, -184099.53, -187500.02, -187500.02, -187500.02, -185133.39, 187500.00, -187500.02, -187500.02, 0.00, 0.00, 0.00
126, -183359.25, -187500.02, -187500.02, -187500.02, -183883.86, 187500.00, -187500.02, -187500.02, 0.00, 0.00, 0.00
127, -183616.83, -187500.02, -187500.02, -187500.02, -184115.66, 187500.00, -187500.02, -187500.02, 0.00, 0.00, 0.00
128, -184393.41, -187500.02, -187500.02, -187500.02, -185679.16, 187500.00, -187500.02, -187500.02, 0.00, 0.00, 0.00
129, -184214.58, -187500.02, -187500.02, -187500.02, -185557.89, 187500.00, -187500.02, -187500.02, 0.00, 0.00, 0.00
130, -183463.25, -187500.02, -187500.02, -187500.02, -184458.81, 187500.00, -187500.02, -187500.02, 0.00, 0.00, 0.00
131, -183521.25, -187500.02, -187500.02, -187500.02, -184541.81, 187500.00, -187500.02, -187500.02, 0.00, 0.00, 0.00
132, -184322.67, -187500.02, -187500.02, -187500.02, -185611.77, 187500.00, -187500.02, -187500.02, 0.00, 0.00, 0.00
133, -184350.66, -187500.02, -187500.02, -187500.02, -185649.88, 187500.00, -187500.02, -187500.02, 0.00, 0.00, 0.00
134, -183562.84, -187500.02, -187500.02, -187500.02, -184560.11, 187500.00, -187500.02, -187500.02, 0.00, 0.00, 0.00
135, -183433.11, -187500.02, -187500.02, -187500.02, -184360.47, 187500.00, -187500.02, -187500.02, 0.00, 0.00, 0.00
136, -184205.72, -187500.02, -187500.02, -187500.02, -185390.30, 187500.00, -187500.02, -187500.02, 0.00, 0.00, 0.00
137, -184444.83, -187500.02, -187500.02, -187500.02, -185705.53, 187500.00, -187500.02, -187500.02, 0.00, 0.00, 0.00
138, -183703.14, -187500.02, -187500.02, -187500.02, -184694.48, 187500.00, -187500.02, -187500.02, 0.00, 0.00, 0.00
139, -183381.55, -187500.02, -187500.02, -187500.02, -184218.75, 187500.00, -187500.02, -187500.02, 0.00, 0.00, 0.00
140, -184070.92, -187500.02, -187500.02, -187500.02, -185145.17, 187500.00, -187500.02, -187500.02, 0.00, 0.00, 0.00
141, -184506.63, -187500.02, -187500.02, -187500.02, -185716.77, 187500.00, -187500.02, -187500.02, 0.00, 0.00, 0.00
142, -183862.14, -187500.02, -187500.02, -187500.02, -184849.28, 187500.00, -187500.02, -187500.02, 0.00, 0.00, 0.00
143, -183366.39, -187500.02, -187500.02, -187500.02, -184127.72, 187500.00, -187500.02, -187500.02, 0.00, 0.00, 0.00
144, -183926.38, -187500.02, -187500.02, -187500.02, -184884.92, 187500.00, -187500.02, -187500.02, 0.00, 0.00, 0.00
145, -184527.75, -187500.02, -187500.02, -187500.02, -185673.78, 187500.00, -187500.02, -187500.02, 0.00, 0.00, 0.00
146, -184022.94, -187500.02, -187500.02, -187500.02, -184976.64, 187500.00, -187500.02, -187500.02, 0.00, 0.00, 0.00
147, -183359.36, -187500.02, -187500.02, -187500.02, -183740.94, 187500.00, -187500.02, -187500.02, 0.00, 0.00, 0.00
148, -183754.94, -187500.02, -187500.02, -187500.02, -184352.58, 187500.00, -187500.02, -187500.02, 0.00, 0.00, 0.00
149, -184474.75, -187500.02, -187500.02, -187500.02, -185833.52, 187500.00, -187500.02, -187500.02, 0.00, 0.00, 0.00
150, -184151.80, -187500.02, -187500.02, -187500.02, -185474.33, 187500.00, -187500.02, -187500.02, 0.00, 0.00, 0.00
151, -183439.75, -187500.02, -187500.02, -187500.02, -184422.52, 187500.00, -187500.02, -187500.02, 0.00, 0.00, 0.00
152, -183638.17, -187500.02, -187500.02, -187500.02, -184711.14, 187500.00, -187500.02, -187500.02, 0.00, 0.00, 0.00
153, -184427.30, -187500.02, -187500.02, -187500.02, -185759.28, 187500.00, -187500.02, -187500.02, 0.00, 0.00, 0.00
154, -184295.88, -187500.02, -187500.02, -187500.02, -185587.63, 187500.00, -187500.02, -187500.02, 0.00, 0.00, 0.00
155, -183508.98, -187500.02, -187500.02, -187500.02, -184486.69, 187500.00, -187500.02, -187500.02, 0.00, 0.00, 0.00
156, -183529.47, -187500.02, -187500.02, -187500.02, -184503.42, 187500.00, -187500.02, -187500.02, 0.00, 0.00, 0.00
157, -184335.67, -187500.02, -187500.02, -187500.02, -185570.20, 187500.00, -187500.02, -187500.02, 0.00, 0.00, 0.00
158, -184414.38, -187500.02, -187500.02, -187500.02, -185674.73, 187500.00, -187500.02, -187500.02, 0.00, 0.00, 0.00
159, -183632.84, -187500.02, -187500.02, -187500.02, -184597.22, 187500.00, -187500.02, -187500.02, 0.00, 0.00, 0.00
160, -183454.80, -187500.02, -187500.02, -187500.02, -184326.83, 187500.00, -187500.02, -187500.02, 0.00, 0.00, 0.00
161, -184212.25, -187500.02, -187500.02, -187500.02, -185339.09, 187500.00, -187500.02, -187500.02, 0.00, 0.00, 0.00
162, -184500.88, -187500.02, -187500.02, -187500.02, -185719.25, 187500.00, -187500.02, -187500.02, 0.00, 0.00, 0.00
163, -183779.91, -187500.02, -187500.02, -187500.02, -184738.64, 187500.00, -187500.02, -187500.02, 0.00, 0.00, 0.00
164, -183415.38, -187500.02, -187500.02, -187500.02, -184199.94, 187500.00, -187500.02, -187500.02, 0.00, 0.00, 0.00
165, -184076.64, -187500.02, -187500.02, -187500.02, -185090.83, 187500.00, -187500.02, -187500.02, 0.00, 0.00, 0.00
166, -184555.13, -187500.02, -187500.02, -187500.02, -185718.11, 187500.00, -187500.02, -187500.02, 0.00, 0.00, 0.00
167, -183935.84, -187500.02, -187500.02, -187500.02, -184868.97, 187500.00, -187500.02, -187500.02, 0.00, 0.00, 0.00
168, -183380.95, -187500.02, -187500.02, -187500.02, -183777.80, 187500.00, -187500.02, -187500.02, 0.00, 0.00, 0.00
169, -183900.45, -187500.02, -187500.02, -187500.02, -184601.80, 187500.00, -187500.02, -187500.02, 0.00, 0.00, 0.00
170, -184532.47, -187500.02, -187500.02, -187500.02, -185919.20, 187500.00, -187500.02, -187500.02, 0.00, 0.00, 0.00
171, -184076.98, -187500.02, -187500.02, -187500.02, -185347.44, 187500.00, -187500.02, -187500.02, 0.00, 0.00, 0.00
172, -183435.73, -187500.02, -187500.02, -187500.02, -184389.39, 187500.00, -187500.02, -187500.02, 0.00, 0.00, 0.00
173, -183774.72, -187500.02, -187500.02, -187500.02, -184873.81, 187500.00, -187500.02, -187500.02, 0.00, 0.00, 0.00
174, -184520.08, -187500.02, -187500.02, -187500.02, -185859.36, 187500.00, -187500.02, -187500.02, 0.00, 0.00, 0.00
175, -184238.05, -187500.02, -187500.02, -187500.02, -185485.70, 187500.00, -187500.02, -187500.02, 0.00, 0.00, 0.00
176, -183493.78, -187500.02, -187500.02, -187500.02, -184415.19, 187500.00, -187500.02, -187500.02, 0.00, 0.00, 0.00
177, -183659.81, -187500.02, -187500.02, -187500.02, -184639.86, 187500.00, -187500.02, -187500.02, 0.00, 0.00, 0.00
178, -184458.41, -187500.02, -187500.02, -187500.02, -185699.81, 187500.00, -187500.02, -187500.02, 0.00, 0.00, 0.00
179, -184377.45, -187500.02, -187500.02, -187500.02, -185594.81, 187500.00, -187500.02, -187500.02, 0.00, 0.00, 0.00
180, -183573.39, -187500.02, -187500.02, -187500.02, -184493.77, 187500.00, -187500.02, -187500.02, 0.00, 0.00, 0.00
181, -183549.30, -187500.02, -187500.02, -187500.02, -184440.91, 187500.00, -187500.02, -187500.02, 0.00, 0.00, 0.00
182, -184354.03, -187500.02, -187500.02, -187500.02, -185501.34, 187500.00, -187500.02, -187500.02, 0.00, 0.00, 0.00
183, -184483.83, -187500.02, -187500.02, -187500.02, -185673.92, 187500.00, -187500.02, -187500.02, 0.00, 0.00, 0.00
184, -183709.56, -187500.02, -187500.02, -187500.02, -184611.36, 187500.00, -187500.02, -187500.02, 0.00, 0.00, 0.00
185, -183485.44, -187500.02, -187500.02, -187500.02, -184274.97, 187500.00, -187500.02, -187500.02, 0.00, 0.00, 0.00
186, -184223.83, -187500.02, -187500.02, -187500.02, -185263.45, 187500.00, -187500.02, -187500.02, 0.00, 0.00, 0.00
187, -184561.05, -187500.02, -187500.02, -187500.02, -185705.73, 187500.00, -187500.02, -187500.02, 0.00, 0.00, 0.00
188, -183855.41, -187500.02, -187500.02, -187500.02, -184696.69, 187500.00, -187500.02, -187500.02, 0.00, 0.00, 0.00
189, -183426.45, -187500.02, -187500.02, -187500.02, -183749.73, 187500.00, -187500.02, -187500.02, 0.00, 0.00, 0.00
190, -184051.39, -187500.02, -187500.02, -187500.02, -184874.73, 187500.00, -187500.02, -187500.02, 0.00, 0.00, 0.00
191, -184567.89, -187500.02, -187500.02, -187500.02, -185985.66, 187500.00, -187500.02, -187500.02, 0.00, 0.00, 0.00
192, -183997.98, -187500.02, -187500.02, -187500.02, -185231.81, 187500.00, -187500.02, -187500.02, 0.00, 0.00, 0.00
193, -183449.44, -187500.02, -187500.02, -187500.02, -184403.61, 187500.00, -187500.02, -187500.02, 0.00, 0.00, 0.00
194, -183914.08, -187500.02, -187500.02, -187500.02, -185062.30, 187500.00, -187500.02, -187500.02, 0.00, 0.00, 0.00
195, -184583.06, -187500.02, -187500.02, -187500.02, -185943.73, 187500.00, -187500.02, -187500.02, 0.00, 0.00, 0.00
196, -184166.77, -187500.02, -187500.02, -187500.02, -185383.47, 187500.00, -187500.02, -187500.02, 0.00, 0.00, 0.00
197, -183485.38, -187500.02, -187500.02, -187500.02, -184392.20, 187500.00, -187500.02, -187500.02, 0.00, 0.00, 0.00
198, -183789.36, -187500.02, -187500.02, -187500.02, -184816.39, 187500.00, -187500.02, -187500.02, 0.00, 0.00, 0.00
199, -184554.86, -187500.02, -187500.02, -187500.02, -185826.41, 187500.00, -187500.02, -187500.02, 0.00, 0.00, 0.00
200, -184316.14, -187500.02, -187500.02, -187500.02, -185514.42, 187500.00, -187500.02, -187500.02, 0.00, 0.00, 0.00
201, -183530.41, -187500.02, -187500.02, -187500.02, -184429.11, 187500.00, -187500.02, -187500.02, 0.00, 0.00, 0.00
202, -183658.67, -187500.02, -187500.02, -187500.02, -184587.50, 187500.00, -187500.02, -187500.02, 0.00, 0.00, 0.00
203, -184472.34, -187500.02, -187500.02, -187500.02, -185656.44, 187500.00, -187500.02, -187500.02, 0.00, 0.00, 0.00
204, -184443.33, -187500.02, -187500.02, -187500.02, -185619.14, 187500.00, -187500.02, -187500.02, 0.00, 0.00, 0.00
205, -183639.00, -187500.02, -187500.02, -187500.02, -184519.91, 187500.00, -187500.02, -187500.02, 0.00, 0.00, 0.00
206, -183561.89, -187500.02, -187500.02, -187500.02, -184397.69, 187500.00, -187500.02, -187500.02, 0.00, 0.00, 0.00
207, -184359.27, -187500.02, -187500.02, -187500.02, -185446.22, 187500.00, -187500.02, -187500.02, 0.00, 0.00, 0.00
208, -184540.22, -187500.02, -187500.02, -187500.02, -185684.70, 187500.00, -187500.02, -187500.02, 0.00, 0.00, 0.00
209, -183780.86, -187500.02, -187500.02, -187500.02, -184561.80, 187500.00, -187500.02, -187500.02, 0.00, 0.00, 0.00
210, -183500.47, -187500.02, -187500.02, -187500.02, -183823.84, 187500.00, -187500.02, -187500.02, 0.00, 0.00, 0.00
211, -184200.94, -187500.02, -187500.02, -187500.02, -185153.69, 187500.00, -187500.02, -187500.02, 0.00, 0.00, 0.00
212, -184584.09, -187500.02, -187500.02, -187500.02, -186005.56, 187500.00, -187500.02, -187500.02, 0.00, 0.00, 0.00
213, -183924.98, -187500.02, -187500.02, -187500.02, -185103.19, 187500.00, -187500.02, -187500.02, 0.00, 0.00, 0.00
214, -183492.22, -187500.02, -187500.02, -187500.02, -184441.98, 187500.00, -187500.02, -187500.02, 0.00, 0.00, 0.00
215, -184068.86, -187500.02, -187500.02, -187500.02, -185249.67, 187500.00, -187500.02, -187500.02, 0.00, 0.00, 0.00
216, -184629.03, -187500.02, -187500.02, -187500.02, -185984.95, 187500.00, -187500.02, -187500.02, 0.00, 0.00, 0.00
217, -184085.36, -187500.02, -187500.02, -187500.02, -185255.59, 187500.00, -187500.02, -187500.02, 0.00, 0.00, 0.00
218, -183478.31, -187500.02, -187500.02, -187500.02, -184384.11, 187500.00, -187500.02, -187500.02, 0.00, 0.00, 0.00
219, -183924.83, -187500.02, -187500.02, -187500.02, -184990.08, 187500.00, -187500.02, -187500.02, 0.00, 0.00, 0.00
220, -184623.86, -187500.02, -187500.02, -187500.02, -185908.19, 187500.00, -187500.02, -187500.02, 0.00, 0.00, 0.00
221, -184245.64, -187500.02, -187500.02, -187500.02, -185406.47, 187500.00, -187500.02, -187500.02, 0.00, 0.00, 0.00
222, -183526.50, -187500.02, -187500.02, -187500.02, -184385.30, 187500.00, -187500.02, -187500.02, 0.00, 0.00, 0.00
223, -183798.03, -187500.02, -187500.02, -187500.02, -184747.31, 187500.00, -187500.02, -187500.02, 0.00, 0.00, 0.00
224, -184577.22, -187500.02, -187500.02, -187500.02, -185775.20, 187500.00, -187500.02, -187500.02, 0.00, 0.00, 0.00
225, -184390.55, -187500.02, -187500.02, -187500.02, -185532.14, 187500.00, -187500.02, -187500.02, 0.00, 0.00, 0.00
226, -183578.31, -187500.02, -187500.02, -187500.02, -184437.41, 187500.00, -187500.02, -187500.02, 0.00, 0.00, 0.00
227, -183662.17, -187500.02, -187500.02, -187500.02, -184529.92, 187500.00, -187500.02, -187500.02, 0.00, 0.00, 0.00
228, -184482.59, -187500.02, -187500.02, -187500.02, -185599.61, 187500.00, -187500.02, -187500.02, 0.00, 0.00, 0.00
229, -184506.67, -187500.02, -187500.02, -187500.02, -185631.39, 187500.00, -187500.02, -187500.02, 0.00, 0.00, 0.00
230, -183717.86, -187500.02, -187500.02, -187500.02, -184427.83, 187500.00, -187500.02, -187500.02, 0.00, 0.00, 0.00
231, -183577.84, -187500.02, -187500.02, -187500.02, -183926.44, 187500.00, -187500.02, -187500.02, 0.00, 0.00, 0.00
232, -184338.36, -187500.02, -187500.02, -187500.02, -185396.27, 187500.00, -187500.02, -187500.02, 0.00, 0.00, 0.00
233, -184568.92, -187500.02, -187500.02, -187500.02, -185980.13, 187500.00, -187500.02, -187500.02, 0.00, 0.00, 0.00
234, -183855.59, -187500.02, -187500.02, -187500.02, -184969.67, 187500.00, -187500.02, -187500.02, 0.00, 0.00, 0.00
235, -183559.16, -187500.02, -187500.02, -187500.02, -184500.39, 187500.00, -187500.02, -187500.02, 0.00, 0.00, 0.00
236, -184222.98, -187500.02, -187500.02, -187500.02, -185428.23, 187500.00, -187500.02, -187500.02, 0.00, 0.00, 0.00
237, -184654.30, -187500.02, -187500.02, -187500.02, -185994.31, 187500.00, -187500.02, -187500.02, 0.00, 0.00, 0.00
238, -184008.50, -187500.02, -187500.02, -187500.02, -185122.19, 187500.00, -187500.02, -187500.02, 0.00, 0.00, 0.00
239, -183514.31, -187500.02, -187500.02, -187500.02, -184403.98, 187500.00, -187500.02, -187500.02, 0.00, 0.00, 0.00
240, -184076.00, -187500.02, -187500.02, -187500.02, -185166.14, 187500.00, -187500.02, -187500.02, 0.00, 0.00, 0.00
241, -184675.42, -187500.02, -187500.02, -187500.02, -185953.56, 187500.00, -187500.02, -187500.02, 0.00, 0.00, 0.00
242, -184166.88, -187500.02, -187500.02, -187500.02, -185277.69, 187500.00, -187500.02, -187500.02, 0.00, 0.00, 0.00
243, -183513.81, -187500.02, -187500.02, -187500.02, -184363.91, 187500.00, -187500.02, -187500.02, 0.00, 0.00, 0.00
244, -183930.47, -187500.02, -187500.02, -187500.02, -184914.98, 187500.00, -187500.02, -187500.02, 0.00, 0.00, 0.00
245, -184656.30, -187500.02, -187500.02, -187500.02, -185866.03, 187500.00, -187500.02, -187500.02, 0.00, 0.00, 0.00
246, -184323.45, -187500.02, -187500.02, -187500.02, -185425.63, 187500.00, -187500.02, -187500.02, 0.00, 0.00, 0.00
247, -183568.67, -187500.02, -187500.02, -187500.02, -184379.73, 187500.00, -187500.02, -187500.02, 0.00, 0.00, 0.00
248, -183796.59, -187500.02, -187500.02, -187500.02, -184677.03, 187500.00, -187500.02, -187500.02, 0.00, 0.00, 0.00
249, -184594.13, -187500.02, -187500.02, -187500.02, -185721.44, 187500.00, -187500.02, -187500.02, 0.00, 0.00, 0.00
250, -184458.38, -187500.02, -187500.02, -187500.02, -185543.03, 187500.00, -187500.02, -187500.02, 0.00, 0.00, 0.00
251, -183653.50, -187500.02, -187500.02, -187500.02, -184264.17, 187500.00, -187500.02, -187500.02, 0.00, 0.00, 0.00
252, -183674.83, -187500.02, -187500.02, -187500.02, -184054.70, 187500.00, -187500.02, -187500.02, 0.00, 0.00, 0.00
253, -184469.91, -187500.02, -187500.02, -187500.02, -185632.14, 187500.00, -187500.02, -187500.02, 0.00, 0.00, 0.00
254, -184543.13, -187500.02, -187500.02, -187500.02, -185943.91, 187500.00, -187500.02, -187500.02, 0.00, 0.00, 0.00
255, -183787.64, -187500.02, -187500.02, -187500.02, -184865.38, 187500.00, -187500.02, -187500.02, 0.00, 0.00, 0.00
0, -183614.56, -187500.02, -187500.02, -187500.02, -184602.06, 187500.00, -187500.02, -187500.02, 0.00, 0.00, 0.00
1, -184358.25, -187500.02, -187500.02, -187500.02, -185613.84, 187500.00, -187500.02, -187500.02, 0.00, 0.00, 0.00
2, -184640.92, -187500.02, -187500.02, -187500.02, -185986.31, 187500.00, -187500.02, -187500.02, 0.00, 0.00, 0.00
3, -183928.39, -187500.02, -187500.02, -187500.02, -185002.95, 187500.00, -187500.02, -187500.02, 0.00, 0.00, 0.00
4, -183573.27, -187500.02, -187500.02, -187500.02, -184470.23, 187500.00, -187500.02, -187500.02, 0.00, 0.00, 0.00
5, -184227.00, -187500.02, -187500.02, -187500.02, -185362.61, 187500.00, -187500.02, -187500.02, 0.00, 0.00, 0.00
6, -184701.94, -187500.02, -187500.02, -187500.02, -185985.55, 187500.00, -187500.02, -187500.02, 0.00, 0.00, 0.00
7, -184087.16, -187500.02, -187500.02, -187500.02, -185157.11, 187500.00, -187500.02, -187500.02, 0.00, 0.00, 0.00
8, -183553.17, -187500.02, -187500.02, -187500.02, -184386.48, 187500.00, -187500.02, -187500.02, 0.00, 0.00, 0.00
9, -184081.52, -187500.02, -187500.02, -187500.02, -185101.83, 187500.00, -187500.02, -187500.02, 0.00, 0.00, 0.00
10, -184714.05, -187500.02, -187500.02, -187500.02, -185930.75, 187500.00, -187500.02, -187500.02, 0.00, 0.00, 0.00
11, -184245.98, -187500.02, -187500.02, -187500.02, -185308.27, 187500.00, -187500.02, -187500.02, 0.00, 0.00, 0.00
12, -183580.81, -187500.02, -187500.02, -187500.02, -184357.05, 187500.00, -187500.02, -187500.02, 0.00, 0.00, 0.00
13, -183945.42, -187500.02, -187500.02, -187500.02, -184848.50, 187500.00, -187500.02, -187500.02, 0.00, 0.00, 0.00
14, -184690.61, -187500.02, -187500.02, -187500.02, -185829.58, 187500.00, -187500.02, -187500.02, 0.00, 0.00, 0.00
15, -184404.44, -187500.02, -187500.02, -187500.02, -185444.06, 187500.00, -187500.02, -187500.02, 0.00, 0.00, 0.00
16, -183643.06, -187500.02, -187500.02, -187500.02, -184127.05, 187500.00, -187500.02, -187500.02, 0.00, 0.00, 0.00
17, -183801.61, -187500.02, -187500.02, -187500.02, -184238.16, 187500.00, -187500.02, -187500.02, 0.00, 0.00, 0.00
18, -184594.45, -187500.02, -187500.02, -187500.02, -185849.41, 187500.00, -187500.02, -187500.02, 0.00, 0.00, 0.00
19, -184508.61, -187500.02, -187500.02, -187500.02, -185891.45, 187500.00, -187500.02, -187500.02, 0.00, 0.00, 0.00
20, -183746.22, -187500.02, -187500.02, -187500.02, -184788.81, 187500.00, -187500.02, -187500.02, 0.00, 0.00, 0.00
21, -183721.97, -187500.02, -187500.02, -187500.02, -184741.50, 187500.00, -187500.02, -187500.02, 0.00, 0.00, 0.00
22, -184507.59, -187500.02, -187500.02, -187500.02, -185801.42, 187500.00, -187500.02, -187500.02, 0.00, 0.00, 0.00
23, -184630.36, -187500.02, -187500.02, -187500.02, -185964.67, 187500.00, -187500.02, -187500.02, 0.00, 0.00, 0.00
24, -183856.86, -187500.02, -187500.02, -187500.02, -184901.52, 187500.00, -187500.02, -187500.02, 0.00, 0.00, 0.00
25, -183639.22, -187500.02, -187500.02, -187500.02, -184571.84, 187500.00, -187500.02, -187500.02, 0.00, 0.00, 0.00
26, -184378.66, -187500.02, -187500.02, -187500.02, -185562.33, 187500.00, -187500.02, -187500.02, 0.00, 0.00, 0.00
27, -184711.88, -187500.02, -187500.02, -187500.02, -186000.11, 187500.00, -187500.02, -187500.02, 0.00, 0.00, 0.00
28, -184004.11, -187500.02, -187500.02, -187500.02, -185051.14, 187500.00, -187500.02, -187500.02, 0.00, 0.00, 0.00
29, -183589.69, -187500.02, -187500.02, -187500.02, -184457.45, 187500.00, -187500.02, -187500.02, 0.00, 0.00, 0.00
30, -184234.77, -187500.02, -187500.02, -187500.02, -185312.61, 187500.00, -187500.02, -187500.02, 0.00, 0.00, 0.00
31, -184753.13, -187500.02, -187500.02, -187500.02, -185991.39, 187500.00, -187500.02, -187500.02, 0.00, 0.00, 0.00
32, -184164.94, -187500.02, -187500.02, -187500.02, -185208.36, 187500.00, -187500.02, -187500.02, 0.00, 0.00, 0.00
33, -183581.53, -187500.02, -187500.02, -187500.02, -184388.52, 187500.00, -187500.02, -187500.02, 0.00, 0.00, 0.00
34, -184083.31, -187500.02, -187500.02, -187500.02, -185053.06, 187500.00, -187500.02, -187500.02, 0.00, 0.00, 0.00
35, -184749.92, -187500.02, -187500.02, -187500.02, -185925.89, 187500.00, -187500.02, -187500.02, 0.00, 0.00, 0.00
36, -184324.38, -187500.02, -187500.02, -187500.02, -185360.86, 187500.00, -187500.02, -187500.02, 0.00, 0.00, 0.00
37, -183615.03, -187500.02, -187500.02, -187500.02, -184374.23, 187500.00, -187500.02, -187500.02, 0.00, 0.00, 0.00
38, -183942.56, -187500.02, -187500.02, -187500.02, -184805.16, 187500.00, -187500.02, -187500.02, 0.00, 0.00, 0.00
39, -184710.39, -187500.02, -187500.02, -187500.02, -185811.98, 187500.00, -187500.02, -187500.02, 0.00, 0.00, 0.00
40, -184470.95, -187500.02, -187500.02, -187500.02, -185484.92, 187500.00, -187500.02, -187500.02, 0.00, 0.00, 0.00
41, -183696.59, -187500.02, -187500.02, -187500.02, -184130.77, 187500.00, -187500.02, -187500.02, 0.00, 0.00, 0.00
42, -183806.19, -187500.02, -187500.02, -187500.02, -184199.41, 187500.00, -187500.02, -187500.02, 0.00, 0.00, 0.00
43, -184601.58, -187500.02, -187500.02, -187500.02, -185823.17, 187500.00, -187500.02, -187500.02, 0.00, 0.00, 0.00
44, -184568.45, -187500.02, -187500.02, -187500.02, -185947.27, 187500.00, -187500.02, -187500.02, 0.00, 0.00, 0.00
45, -183820.41, -187500.02, -187500.02, -187500.02, -184847.25, 187500.00, -187500.02, -187500.02, 0.00, 0.00, 0.00
46, -183740.55, -187500.02, -187500.02, -187500.02, -184728.53, 187500.00, -187500.02, -187500.02, 0.00, 0.00, 0.00
47, -184511.83, -187500.02, -187500.02, -187500.02, -185777.03, 187500.00, -187500.02, -187500.02, 0.00, 0.00, 0.00
48, -184687.55, -187500.02, -187500.02, -187500.02, -186009.59, 187500.00, -187500.02, -187500.02, 0.00, 0.00, 0.00
49, -183931.67, -187500.02, -187500.02, -187500.02, -184968.70, 187500.00, -187500.02, -187500.02, 0.00, 0.00, 0.00
50, -183658.27, -187500.02, -187500.02, -187500.02, -184570.19, 187500.00, -187500.02, -187500.02, 0.00, 0.00, 0.00
51, -184379.48, -187500.02, -187500.02, -187500.02, -185534.11, 187500.00, -187500.02, -187500.02, 0.00, 0.00, 0.00
52, -184760.56, -187500.02, -187500.02, -187500.02, -186033.77, 187500.00, -187500.02, -187500.02, 0.00, 0.00, 0.00
53, -184086.14, -187500.02, -187500.02, -187500.02, -185118.89, 187500.00, -187500.02, -187500.02, 0.00, 0.00, 0.00
54, -183635.27, -187500.02, -187500.02, -187500.02, -184463.84, 187500.00, -187500.02, -187500.02, 0.00, 0.00, 0.00
55, -184236.95, -187500.02, -187500.02, -187500.02, -185275.89, 187500.00, -187500.02, -187500.02, 0.00, 0.00, 0.00
56, -184793.75, -187500.02, -187500.02, -187500.02, -186005.20, 187500.00, -187500.02, -187500.02, 0.00, 0.00, 0.00
57, -184242.31, -187500.02, -187500.02, -187500.02, -185272.52, 187500.00, -187500.02, -187500.02, 0.00, 0.00, 0.00
58, -183624.41, -187500.02, -187500.02, -187500.02, -184405.84, 187500.00, -187500.02, -187500.02, 0.00, 0.00, 0.00
59, -184086.14, -187500.02, -187500.02, -187500.02, -185016.02, 187500.00, -187500.02, -187500.02, 0.00, 0.00, 0.00
60, -184786.16, -187500.02, -187500.02, -187500.02, -185933.36, 187500.00, -187500.02, -187500.02, 0.00, 0.00, 0.00
61, -184404.50, -187500.02, -187500.02, -187500.02, -185413.64, 187500.00, -187500.02, -187500.02, 0.00, 0.00, 0.00
62, -183682.52, -187500.02, -187500.02, -187500.02, -184113.70, 187500.00, -187500.02, -187500.02, 0.00, 0.00, 0.00
63, -183937.73, -187500.02, -187500.02, -187500.02, -184435.53, 187500.00, -187500.02, -187500.02, 0.00, 0.00, 0.00
64, -184708.48, -187500.02, -187500.02, -187500.02, -186015.48, 187500.00, -187500.02, -187500.02, 0.00, 0.00, 0.00
65, -184518.45, -187500.02, -187500.02, -187500.02, -185879.38, 187500.00, -187500.02, -187500.02, 0.00, 0.00, 0.00
66, -183768.06, -187500.02, -187500.02, -187500.02, -184784.55, 187500.00, -187500.02, -187500.02, 0.00, 0.00, 0.00
67, -183839.88, -187500.02, -187500.02, -187500.02, -184881.70, 187500.00, -187500.02, -187500.02, 0.00, 0.00, 0.00
68, -184638.19, -187500.02, -187500.02, -187500.02, -185950.55, 187500.00, -187500.02, -187500.02, 0.00, 0.00, 0.00
69, -184655.02, -187500.02, -187500.02, -187500.02, -185972.75, 187500.00, -187500.02, -187500.02, 0.00, 0.00, 0.00
70, -183866.88, -187500.02, -187500.02, -187500.02, -184880.09, 187500.00, -187500.02, -187500.02, 0.00, 0.00, 0.00
71, -183745.39, -187500.02, -187500.02, -187500.02, -184693.47, 187500.00, -187500.02, -187500.02, 0.00, 0.00, 0.00
72, -184522.19, -187500.02, -187500.02, -187500.02, -185726.41, 187500.00, -187500.02, -187500.02, 0.00, 0.00, 0.00
73, -184750.59, -187500.02, -187500.02, -187500.02, -186026.80, 187500.00, -187500.02, -187500.02, 0.00, 0.00, 0.00
74, -184006.97, -187500.02, -187500.02, -187500.02, -185011.33, 187500.00, -187500.02, -187500.02, 0.00, 0.00, 0.00
75, -183694.05, -187500.02, -187500.02, -187500.02, -184549.73, 187500.00, -187500.02, -187500.02, 0.00, 0.00, 0.00
76, -184388.97, -187500.02, -187500.02, -187500.02, -185483.06, 187500.00, -187500.02, -187500.02, 0.00, 0.00, 0.00
77, -184815.97, -187500.02, -187500.02, -187500.02, -186042.81, 187500.00, -187500.02, -187500.02, 0.00, 0.00, 0.00
78, -184159.91, -187500.02, -187500.02, -187500.02, -185167.13, 187500.00, -187500.02, -187500.02, 0.00, 0.00, 0.00
79, -183660.66, -187500.02, -187500.02, -187500.02, -184457.41, 187500.00, -187500.02, -187500.02, 0.00, 0.00, 0.00
80, -184237.75, -187500.02, -187500.02, -187500.02, -185224.63, 187500.00, -187500.02, -187500.02, 0.00, 0.00, 0.00
81, -184831.58, -187500.02, -187500.02, -187500.02, -186003.55, 187500.00, -187500.02, -187500.02, 0.00, 0.00, 0.00
82, -184318.00, -187500.02, -187500.02, -187500.02, -185319.73, 187500.00, -187500.02, -187500.02, 0.00, 0.00, 0.00
83, -183666.77, -187500.02, -187500.02, -187500.02, -184409.13, 187500.00, -187500.02, -187500.02, 0.00, 0.00, 0.00
84, -184087.16, -187500.02, -187500.02, -187500.02, -184965.91, 187500.00, -187500.02, -187500.02, 0.00, 0.00, 0.00
85, -184812.78, -187500.02, -187500.02, -187500.02, -185914.88, 187500.00, -187500.02, -187500.02, 0.00, 0.00, 0.00
86, -184475.44, -187500.02, -187500.02, -187500.02, -185447.97, 187500.00, -187500.02, -187500.02, 0.00, 0.00, 0.00
87, -183747.84, -187500.02, -187500.02, -187500.02, -184103.84, 187500.00, -187500.02, -187500.02, 0.00, 0.00, 0.00
88, -183950.97, -187500.02, -187500.02, -187500.02, -184384.61, 187500.00, -187500.02, -187500.02, 0.00, 0.00, 0.00
89, -184728.84, -187500.02, -187500.02, -187500.02, -185989.34, 187500.00, -187500.02, -187500.02, 0.00, 0.00, 0.00
90, -184587.16, -187500.02, -187500.02, -187500.02, -185931.33, 187500.00, -187500.02, -187500.02, 0.00, 0.00, 0.00
91, -183830.33, -187500.02, -187500.02, -187500.02, -184830.91, 187500.00, -187500.02, -187500.02, 0.00, 0.00, 0.00
92, -183856.48, -187500.02, -187500.02, -187500.02, -184859.58, 187500.00, -187500.02, -187500.02, 0.00, 0.00, 0.00
93, -184651.63, -187500.02, -187500.02, -187500.02, -185927.89, 187500.00, -187500.02, -187500.02, 0.00, 0.00, 0.00
94, -184720.48, -187500.02, -187500.02, -187500.02, -186020.86, 187500.00, -187500.02, -187500.02, 0.00, 0.00, 0.00
95, -183935.66, -187500.02, -187500.02, -187500.02, -184939.75, 187500.00, -187500.02, -187500.02, 0.00, 0.00, 0.00
96, -183768.45, -187500.02, -187500.02, -187500.02, -184682.64, 187500.00, -187500.02, -187500.02, 0.00, 0.00, 0.00
97, -184527.30, -187500.02, -187500.02, -187500.02, -185697.44, 187500.00, -187500.02, -187500.02, 0.00, 0.00, 0.00
98, -184805.09, -187500.02, -187500.02, -187500.02, -186063.61, 187500.00, -187500.02, -187500.02, 0.00, 0.00, 0.00
99, -184072.72, -187500.02, -187500.02, -187500.02, -185076.39, 187500.00, -187500.02, -187500.02, 0.00, 0.00, 0.00
100, -183708.67, -187500.02, -187500.02, -187500.02, -184553.91, 187500.00, -187500.02, -187500.02, 0.00, 0.00, 0.00
101, -184385.86, -187500.02, -187500.02, -187500.02, -185450.83, 187500.00, -187500.02, -187500.02, 0.00, 0.00, 0.00
102, -184856.25, -187500.02, -187500.02, -187500.02, -186066.84, 187500.00, -187500.02, -187500.02, 0.00, 0.00, 0.00
103, -184238.97, -187500.02, -187500.02, -187500.02, -185232.95, 187500.00, -187500.02, -187500.02, 0.00, 0.00, 0.00
104, -183707.38, -187500.02, -187500.02, -187500.02, -184468.31, 187500.00, -187500.02, -187500.02, 0.00, 0.00, 0.00
105, -184238.34, -187500.02, -187500.02, -187500.02, -185187.75, 187500.00, -187500.02, -187500.02, 0.00, 0.00, 0.00
106, -184869.73, -187500.02, -187500.02, -187500.02, -186014.88, 187500.00, -187500.02, -187500.02, 0.00, 0.00, 0.00
107, -184398.52, -187500.02, -187500.02, -187500.02, -185366.03, 187500.00, -187500.02, -187500.02, 0.00, 0.00, 0.00
108, -183731.58, -187500.02, -187500.02, -187500.02, -184109.80, 187500.00, -187500.02, -187500.02, 0.00, 0.00, 0.00
109, -184083.70, -187500.02, -187500.02, -187500.02, -184644.33, 187500.00, -187500.02, -187500.02, 0.00, 0.00, 0.00
110, -184816.27, -187500.02, -187500.02, -187500.02, -186155.45, 187500.00, -187500.02, -187500.02, 0.00, 0.00, 0.00
111, -184527.81, -187500.02, -187500.02, -187500.02, -185854.56, 187500.00, -187500.02, -187500.02, 0.00, 0.00, 0.00
112, -183802.84, -187500.02, -187500.02, -187500.02, -184787.08, 187500.00, -187500.02, -187500.02, 0.00, 0.00, 0.00
113, -183968.38, -187500.02, -187500.02, -187500.02, -185025.88, 187500.00, -187500.02, -187500.02, 0.00, 0.00, 0.00
114, -184763.58, -187500.02, -187500.02, -187500.02, -186082.31, 187500.00, -187500.02, -187500.02, 0.00, 0.00, 0.00
115, -184673.09, -187500.02, -187500.02, -187500.02, -185964.30, 187500.00, -187500.02, -187500.02, 0.00, 0.00, 0.00
116, -183881.81, -187500.02, -187500.02, -187500.02, -184860.98, 187500.00, -187500.02, -187500.02, 0.00, 0.00, 0.00
117, -183864.64, -187500.02, -187500.02, -187500.02, -184821.58, 187500.00, -187500.02, -187500.02, 0.00, 0.00, 0.00
118, -184665.05, -187500.02, -187500.02, -187500.02, -185882.44, 187500.00, -187500.02, -187500.02, 0.00, 0.00, 0.00
119, -184784.41, -187500.02, -187500.02, -187500.02, -186041.47, 187500.00, -187500.02, -187500.02, 0.00, 0.00, 0.00
120, -184009.88, -187500.02, -187500.02, -187500.02, -184975.77, 187500.00, -187500.02, -187500.02, 0.00, 0.00, 0.00
121, -183794.41, -187500.02, -187500.02, -187500.02, -184653.88, 187500.00, -187500.02, -187500.02, 0.00, 0.00, 0.00
122, -184535.84, -187500.02, -187500.02, -187500.02, -185645.48, 187500.00, -187500.02, -187500.02, 0.00, 0.00, 0.00
123, -184862.84, -187500.02, -187500.02, -187500.02, -186075.22, 187500.00, -187500.02, -187500.02, 0.00, 0.00, 0.00
124, -184155.08, -187500.02, -187500.02, -187500.02, -185120.94, 187500.00, -187500.02, -187500.02, 0.00, 0.00, 0.00
125, -183743.06, -187500.02, -187500.02, -187500.02, -184534.00, 187500.00, -187500.02, -187500.02, 0.00, 0.00, 0.00
126, -184390.80, -187500.02, -187500.02, -187500.02, -185393.13, 187500.00, -187500.02, -187500.02, 0.00, 0.00, 0.00
127, -184904.16, -187500.02, -187500.02, -187500.02, -186065.69, 187500.00, -187500.02, -187500.02, 0.00, 0.00, 0.00
128, -184315.73, -187500.02, -187500.02, -187500.02, -185247.31, 187500.00, -187500.02, -187500.02, 0.00, 0.00, 0.00
129, -183743.48, -187500.02, -187500.02, -187500.02, -184106.28, 187500.00, -187500.02, -187500.02, 0.00, 0.00, 0.00
130, -184221.58, -187500.02, -187500.02, -187500.02, -184893.98, 187500.00, -187500.02, -187500.02, 0.00, 0.00, 0.00
131, -184876.41, -187500.02, -187500.02, -187500.02, -186259.34, 187500.00, -187500.02, -187500.02, 0.00, 0.00, 0.00
132, -184453.36, -187500.02, -187500.02, -187500.02, -185740.28, 187500.00, -187500.02, -187500.02, 0.00, 0.00, 0.00
133, -183791.38, -187500.02, -187500.02, -187500.02, -184754.16, 187500.00, -187500.02, -187500.02, 0.00, 0.00, 0.00
134, -184094.86, -187500.02, -187500.02, -187500.02, -185189.03, 187500.00, -187500.02, -187500.02, 0.00, 0.00, 0.00
135, -184856.00, -187500.02, -187500.02, -187500.02, -186194.66, 187500.00, -187500.02, -187500.02, 0.00, 0.00, 0.00
136, -184612.27, -187500.02, -187500.02, -187500.02, -185872.92, 187500.00, -187500.02, -187500.02, 0.00, 0.00, 0.00
137, -183856.59, -187500.02, -187500.02, -187500.02, -184789.55, 187500.00, -187500.02, -187500.02, 0.00, 0.00, 0.00
138, -183985.11, -187500.02, -187500.02, -187500.02, -184959.81, 187500.00, -187500.02, -187500.02, 0.00, 0.00, 0.00
139, -184787.09, -187500.02, -187500.02, -187500.02, -186025.27, 187500.00, -187500.02, -187500.02, 0.00, 0.00, 0.00
140, -184749.09, -187500.02, -187500.02, -187500.02, -185978.28, 187500.00, -187500.02, -187500.02, 0.00, 0.00, 0.00
141, -183942.53, -187500.02, -187500.02, -187500.02, -184878.00, 187500.00, -187500.02, -187500.02, 0.00, 0.00, 0.00
142, -183879.22, -187500.02, -187500.02, -187500.02, -184768.08, 187500.00, -187500.02, -187500.02, 0.00, 0.00, 0.00
143, -184674.95, -187500.02, -187500.02, -187500.02, -185818.03, 187500.00, -187500.02, -187500.02, 0.00, 0.00, 0.00
144, -184845.81, -187500.02, -187500.02, -187500.02, -186044.78, 187500.00, -187500.02, -187500.02, 0.00, 0.00, 0.00
145, -184084.53, -187500.02, -187500.02, -187500.02, -185002.19, 187500.00, -187500.02, -187500.02, 0.00, 0.00, 0.00
146, -183823.56, -187500.02, -187500.02, -187500.02, -184612.97, 187500.00, -187500.02, -187500.02, 0.00, 0.00, 0.00
147, -184542.91, -187500.02, -187500.02, -187500.02, -185578.84, 187500.00, -187500.02, -187500.02, 0.00, 0.00, 0.00
148, -184919.69, -187500.02, -187500.02, -187500.02, -186072.72, 187500.00, -187500.02, -187500.02, 0.00, 0.00, 0.00
149, -184227.86, -187500.02, -187500.02, -187500.02, -185110.41, 187500.00, -187500.02, -187500.02, 0.00, 0.00, 0.00
150, -183752.61, -187500.02, -187500.02, -187500.02, -184123.14, 187500.00, -187500.02, -187500.02, 0.00, 0.00, 0.00
151, -184361.00, -187500.02, -187500.02, -187500.02, -185154.33, 187500.00, -187500.02, -187500.02, 0.00, 0.00, 0.00
152, -184908.94, -187500.02, -187500.02, -187500.02, -186321.20, 187500.00, -187500.02, -187500.02, 0.00, 0.00, 0.00
153, -184373.25, -187500.02, -187500.02, -187500.02, -185613.78, 187500.00, -187500.02, -187500.02, 0.00, 0.00, 0.00
154, -183813.94, -187500.02, -187500.02, -187500.02, -184749.95, 187500.00, -187500.02, -187500.02, 0.00, 0.00, 0.00
155, -184236.84, -187500.02, -187500.02, -187500.02, -185364.58, 187500.00, -187500.02, -187500.02, 0.00, 0.00, 0.00
156, -184926.30, -187500.02, -187500.02, -187500.02, -186273.64, 187500.00, -187500.02, -187500.02, 0.00, 0.00, 0.00
157, -184543.28, -187500.02, -187500.02, -187500.02, -185760.73, 187500.00, -187500.02, -187500.02, 0.00, 0.00, 0.00
158, -183842.73, -187500.02, -187500.02, -187500.02, -184745.16, 187500.00, -187500.02, -187500.02, 0.00, 0.00, 0.00
159, -184110.38, -187500.02, -187500.02, -187500.02, -185116.67, 187500.00, -187500.02, -187500.02, 0.00, 0.00, 0.00
160, -184887.19, -187500.02, -187500.02, -187500.02, -186143.36, 187500.00, -187500.02, -187500.02, 0.00, 0.00, 0.00
161, -184691.92, -187500.02, -187500.02, -187500.02, -185887.00, 187500.00, -187500.02, -187500.02, 0.00, 0.00, 0.00
162, -183897.00, -187500.02, -187500.02, -187500.02, -184793.73, 187500.00, -187500.02, -187500.02, 0.00, 0.00, 0.00
163, -183984.28, -187500.02, -187500.02, -187500.02, -184896.55, 187500.00, -187500.02, -187500.02, 0.00, 0.00, 0.00
164, -184799.39, -187500.02, -187500.02, -187500.02, -185967.33, 187500.00, -187500.02, -187500.02, 0.00, 0.00, 0.00
165, -184811.56, -187500.02, -187500.02, -187500.02, -185985.86, 187500.00, -187500.02, -187500.02, 0.00, 0.00, 0.00
166, -184022.08, -187500.02, -187500.02, -187500.02, -184893.56, 187500.00, -187500.02, -187500.02, 0.00, 0.00, 0.00
167, -183906.84, -187500.02, -187500.02, -187500.02, -184713.41, 187500.00, -187500.02, -187500.02, 0.00, 0.00, 0.00
168, -184683.39, -187500.02, -187500.02, -187500.02, -185748.67, 187500.00, -187500.02, -187500.02, 0.00, 0.00, 0.00
169, -184906.97, -187500.02, -187500.02, -187500.02, -186042.19, 187500.00, -187500.02, -187500.02, 0.00, 0.00, 0.00
170, -184151.59, -187500.02, -187500.02, -187500.02, -184940.14, 187500.00, -187500.02, -187500.02, 0.00, 0.00, 0.00
171, -183824.77, -187500.02, -187500.02, -187500.02, -184144.42, 187500.00, -187500.02, -187500.02, 0.00, 0.00, 0.00
172, -184517.13, -187500.02, -187500.02, -187500.02, -185442.20, 187500.00, -187500.02, -187500.02, 0.00, 0.00, 0.00
173, -184937.02, -187500.02, -187500.02, -187500.02, -186361.53, 187500.00, -187500.02, -187500.02, 0.00, 0.00, 0.00
174, -184303.14, -187500.02, -187500.02, -187500.02, -185495.06, 187500.00, -187500.02, -187500.02, 0.00, 0.00, 0.00
175, -183835.41, -187500.02, -187500.02, -187500.02, -184787.88, 187500.00, -187500.02, -187500.02, 0.00, 0.00, 0.00
176, -184383.94, -187500.02, -187500.02, -187500.02, -185556.80, 187500.00, -187500.02, -187500.02, 0.00, 0.00, 0.00
177, -184975.34, -187500.02, -187500.02, -187500.02, -186331.44, 187500.00, -187500.02, -187500.02, 0.00, 0.00, 0.00
178, -184464.47, -187500.02, -187500.02, -187500.02, -185643.23, 187500.00, -187500.02, -187500.02, 0.00, 0.00, 0.00
179, -183847.09, -187500.02, -187500.02, -187500.02, -184738.39, 187500.00, -187500.02, -187500.02, 0.00, 0.00, 0.00
180, -184252.39, -187500.02, -187500.02, -187500.02, -185300.56, 187500.00, -187500.02, -187500.02, 0.00, 0.00, 0.00
181, -184969.17, -187500.02, -187500.02, -187500.02, -186244.66, 187500.00, -187500.02, -187500.02, 0.00, 0.00, 0.00
182, -184627.06, -187500.02, -187500.02, -187500.02, -185791.61, 187500.00, -187500.02, -187500.02, 0.00, 0.00, 0.00
183, -183889.63, -187500.02, -187500.02, -187500.02, -184748.92, 187500.00, -187500.02, -187500.02, 0.00, 0.00, 0.00
184, -184119.69, -187500.02, -187500.02, -187500.02, -185058.00, 187500.00, -187500.02, -187500.02, 0.00, 0.00, 0.00
185, -184911.44, -187500.02, -187500.02, -187500.02, -186099.88, 187500.00, -187500.02, -187500.02, 0.00, 0.00, 0.00
186, -184764.47, -187500.02, -187500.02, -187500.02, -185907.95, 187500.00, -187500.02, -187500.02, 0.00, 0.00, 0.00
187, -183962.88, -187500.02, -187500.02, -187500.02, -184809.11, 187500.00, -187500.02, -187500.02, 0.00, 0.00, 0.00
188, -184006.50, -187500.02, -187500.02, -187500.02, -184848.78, 187500.00, -187500.02, -187500.02, 0.00, 0.00, 0.00
189, -184816.59, -187500.02, -187500.02, -187500.02, -185914.78, 187500.00, -187500.02, -187500.02, 0.00, 0.00, 0.00
190, -184879.67, -187500.02, -187500.02, -187500.02, -185999.30, 187500.00, -187500.02, -187500.02, 0.00, 0.00, 0.00
191, -184082.28, -187500.02, -187500.02, -187500.02, -184806.25, 187500.00, -187500.02, -187500.02, 0.00, 0.00, 0.00
192, -183903.20, -187500.02, -187500.02, -187500.02, -184244.11, 187500.00, -187500.02, -187500.02, 0.00, 0.00, 0.00
193, -184659.53, -187500.02, -187500.02, -187500.02, -185694.16, 187500.00, -187500.02, -187500.02, 0.00, 0.00, 0.00
194, -184929.52, -187500.02, -187500.02, -187500.02, -186347.19, 187500.00, -187500.02, -187500.02, 0.00, 0.00, 0.00
195, -184233.17, -187500.02, -187500.02, -187500.02, -185361.58, 187500.00, -187500.02, -187500.02, 0.00, 0.00, 0.00
196, -183898.34, -187500.02, -187500.02, -187500.02, -184841.80, 187500.00, -187500.02, -187500.02, 0.00, 0.00, 0.00
197, -184540.33, -187500.02, -187500.02, -187500.02, -185741.36, 187500.00, -187500.02, -187500.02, 0.00, 0.00, 0.00
198, -185006.25, -187500.02, -187500.02, -187500.02, -186351.42, 187500.00, -187500.02, -187500.02, 0.00, 0.00, 0.00
199, -184388.27, -187500.02, -187500.02, -187500.02, -185513.50, 187500.00, -187500.02, -187500.02, 0.00, 0.00, 0.00
200, -183874.08, -187500.02, -187500.02, -187500.02, -184753.14, 187500.00, -187500.02, -187500.02, 0.00, 0.00, 0.00
201, -184399.09, -187500.02, -187500.02, -187500.02, -185478.08, 187500.00, -187500.02, -187500.02, 0.00, 0.00, 0.00
202, -185025.75, -187500.02, -187500.02, -187500.02, -186300.78, 187500.00, -187500.02, -187500.02, 0.00, 0.00, 0.00
203, -184548.42, -187500.02, -187500.02, -187500.02, -185667.42, 187500.00, -187500.02, -187500.02, 0.00, 0.00, 0.00
204, -183872.00, -187500.02, -187500.02, -187500.02, -184725.36, 187500.00, -187500.02, -187500.02, 0.00, 0.00, 0.00
205, -184253.00, -187500.02, -187500.02, -187500.02, -185228.47, 187500.00, -187500.02, -187500.02, 0.00, 0.00, 0.00
206, -184998.34, -187500.02, -187500.02, -187500.02, -186203.38, 187500.00, -187500.02, -187500.02, 0.00, 0.00, 0.00
207, -184699.66, -187500.02, -187500.02, -187500.02, -185810.38, 187500.00, -187500.02, -187500.02, 0.00, 0.00, 0.00
208, -183929.84, -187500.02, -187500.02, -187500.02, -184747.17, 187500.00, -187500.02, -187500.02, 0.00, 0.00, 0.00
209, -184121.39, -187500.02, -187500.02, -187500.02, -184993.69, 187500.00, -187500.02, -187500.02, 0.00, 0.00, 0.00
210, -184926.70, -187500.02, -187500.02, -187500.02, -186050.17, 187500.00, -187500.02, -187500.02, 0.00, 0.00, 0.00
211, -184829.81, -187500.02, -187500.02, -187500.02, -185924.06, 187500.00, -187500.02, -187500.02, 0.00, 0.00, 0.00
212, -184035.86, -187500.02, -187500.02, -187500.02, -184656.47, 187500.00, -187500.02, -187500.02, 0.00, 0.00, 0.00
213, -184016.19, -187500.02, -187500.02, -187500.02, -184374.27, 187500.00, -187500.02, -187500.02, 0.00, 0.00, 0.00
214, -184800.17, -187500.02, -187500.02, -187500.02, -185938.02, 187500.00, -187500.02, -187500.02, 0.00, 0.00, 0.00
215, -184912.98, -187500.02, -187500.02, -187500.02, -186317.72, 187500.00, -187500.02, -187500.02, 0.00, 0.00, 0.00
216, -184173.66, -187500.02, -187500.02, -187500.02, -185249.95, 187500.00, -187500.02, -187500.02, 0.00, 0.00, 0.00
217, -183969.20, -187500.02, -187500.02, -187500.02, -184933.44, 187500.00, -187500.02, -187500.02, 0.00, 0.00, 0.00
218, -184689.53, -187500.02, -187500.02, -187500.02, -185927.39, 187500.00, -187500.02, -187500.02, 0.00, 0.00, 0.00
219, -185012.63, -187500.02, -187500.02, -187500.02, -186351.27, 187500.00, -187500.02, -187500.02, 0.00, 0.00, 0.00
220, -184301.28, -187500.02, -187500.02, -187500.02, -185393.77, 187500.00, -187500.02, -187500.02, 0.00, 0.00, 0.00
221, -183895.34, -187500.02, -187500.02, -187500.02, -184815.33, 187500.00, -187500.02, -187500.02, 0.00, 0.00, 0.00
222, -184546.36, -187500.02, -187500.02, -187500.02, -185678.39, 187500.00, -187500.02, -187500.02, 0.00, 0.00, 0.00
223, -185054.09, -187500.02, -187500.02, -187500.02, -186343.06, 187500.00, -187500.02, -187500.02, 0.00, 0.00, 0.00
224, -184461.39, -187500.02, -187500.02, -187500.02, -185548.58, 187500.00, -187500.02, -187500.02, 0.00, 0.00, 0.00
225, -183900.94, -187500.02, -187500.02, -187500.02, -184738.08, 187500.00, -187500.02, -187500.02, 0.00, 0.00, 0.00
226, -184400.56, -187500.02, -187500.02, -187500.02, -185413.53, 187500.00, -187500.02, -187500.02, 0.00, 0.00, 0.00
227, -185059.00, -187500.02, -187500.02, -187500.02, -186279.81, 187500.00, -187500.02, -187500.02, 0.00, 0.00, 0.00
228, -184623.95, -187500.02, -187500.02, -187500.02, -185702.38, 187500.00, -187500.02, -187500.02, 0.00, 0.00, 0.00
229, -183920.36, -187500.02, -187500.02, -187500.02, -184722.09, 187500.00, -187500.02, -187500.02, 0.00, 0.00, 0.00
230, -184258.59, -187500.02, -187500.02, -187500.02, -185166.34, 187500.00, -187500.02, -187500.02, 0.00, 0.00, 0.00
231, -185022.17, -187500.02, -187500.02, -187500.02, -186167.05, 187500.00, -187500.02, -187500.02, 0.00, 0.00, 0.00
232, -184770.48, -187500.02, -187500.02, -187500.02, -185834.39, 187500.00, -187500.02, -187500.02, 0.00, 0.00, 0.00
233, -183999.05, -187500.02, -187500.02, -187500.02, -184540.91, 187500.00, -187500.02, -187500.02, 0.00, 0.00, 0.00
234, -184123.88, -187500.02, -187500.02, -187500.02, -184547.11, 187500.00, -187500.02, -187500.02, 0.00, 0.00, 0.00
235, -184916.78, -187500.02, -187500.02, -187500.02, -186148.63, 187500.00, -187500.02, -187500.02, 0.00, 0.00, 0.00
236, -184872.39, -187500.02, -187500.02, -187500.02, -186259.53, 187500.00, -187500.02, -187500.02, 0.00, 0.00, 0.00
237, -184108.05, -187500.02, -187500.02, -187500.02, -185158.52, 187500.00, -187500.02, -187500.02, 0.00, 0.00, 0.00
238, -184046.47, -187500.02, -187500.02, -187500.02, -185055.03, 187500.00, -187500.02, -187500.02, 0.00, 0.00, 0.00
239, -184824.27, -187500.02, -187500.02, -187500.02, -186106.73, 187500.00, -187500.02, -187500.02, 0.00, 0.00, 0.00
240, -184989.22, -187500.02, -187500.02, -187500.02, -186325.63, 187500.00, -187500.02, -187500.02, 0.00, 0.00, 0.00
241, -184233.78, -187500.02, -187500.02, -187500.02, -185278.16, 187500.00, -187500.02, -187500.02, 0.00, 0.00, 0.00
242, -183984.89, -187500.02, -187500.02, -187500.02, -184895.66, 187500.00, -187500.02, -187500.02, 0.00, 0.00, 0.00
243, -184697.17, -187500.02, -187500.02, -187500.02, -185864.25, 187500.00, -187500.02, -187500.02, 0.00, 0.00, 0.00
244, -185067.67, -187500.02, -187500.02, -187500.02, -186349.53, 187500.00, -187500.02, -187500.02, 0.00, 0.00, 0.00
245, -184384.47, -187500.02, -187500.02, -187500.02, -185426.09, 187500.00, -187500.02, -187500.02, 0.00, 0.00, 0.00
246, -183946.25, -187500.02, -187500.02, -187500.02, -184784.30, 187500.00, -187500.02, -187500.02, 0.00, 0.00, 0.00
247, -184554.61, -187500.02, -187500.02, -187500.02, -185605.45, 187500.00, -187500.02, -187500.02, 0.00, 0.00, 0.00
248, -185102.88, -187500.02, -187500.02, -187500.02, -186325.55, 187500.00, -187500.02, -187500.02, 0.00, 0.00, 0.00
249, -184544.20, -187500.02, -187500.02, -187500.02, -185582.75, 187500.00, -187500.02, -187500.02, 0.00, 0.00, 0.00
250, -183933.02, -187500.02, -187500.02, -187500.02, -184726.19, 187500.00, -187500.02, -187500.02, 0.00, 0.00, 0.00
251, -184403.34, -187500.02, -187500.02, -187500.02, -185348.91, 187500.00, -187500.02, -187500.02, 0.00, 0.00, 0.00
252, -185095.69, -187500.02, -187500.02, -187500.02, -186256.23, 187500.00, -187500.02, -187500.02, 0.00, 0.00, 0.00
253, -184702.89, -187500.02, -187500.02, -187500.02, -185737.31, 187500.00, -187500.02, -187500.02, 0.00, 0.00, 0.00
254, -183973.94, -187500.02, -187500.02, -187500.02, -184725.47, 187500.00, -187500.02, -187500.02, 0.00, 0.00, 0.00
255, -184266.39, -187500.02, -187500.02, -187500.02, -185108.33, 187500.00, -187500.02, -187500.02, 0.00, 0.00, 0.00
0, -185043.31, -187500.02, -187500.02, -187500.02, -186128.45, 187500.00, -187500.02, -187500.02, 0.00, 0.00, 0.00
1, -184841.77, -187500.02, -187500.02, -187500.02, -185855.28, 187500.00, -187500.02, -187500.02, 0.00, 0.00, 0.00
2, -184073.36, -187500.02, -187500.02, -187500.02, -184501.78, 187500.00, -187500.02, -187500.02, 0.00, 0.00, 0.00
3, -184143.31, -187500.02, -187500.02, -187500.02, -184493.13, 187500.00, -187500.02, -187500.02, 0.00, 0.00, 0.00
4, -184935.06, -187500.02, -187500.02, -187500.02, -186118.34, 187500.00, -187500.02, -187500.02, 0.00, 0.00, 0.00
5, -184941.48, -187500.02, -187500.02, -187500.02, -186311.47, 187500.00, -187500.02, -187500.02, 0.00, 0.00, 0.00
6, -184178.17, -187500.02, -187500.02, -187500.02, -185216.25, 187500.00, -187500.02, -187500.02, 0.00, 0.00, 0.00
7, -184069.53, -187500.02, -187500.02, -187500.02, -185045.17, 187500.00, -187500.02, -187500.02, 0.00, 0.00, 0.00
8, -184832.53, -187500.02, -187500.02, -187500.02, -186079.88, 187500.00, -187500.02, -187500.02, 0.00, 0.00, 0.00
9, -185048.16, -187500.02, -187500.02, -187500.02, -186364.33, 187500.00, -187500.02, -187500.02, 0.00, 0.00, 0.00
10, -184308.59, -187500.02, -187500.02, -187500.02, -185342.53, 187500.00, -187500.02, -187500.02, 0.00, 0.00, 0.00
11, -184015.25, -187500.02, -187500.02, -187500.02, -184894.72, 187500.00, -187500.02, -187500.02, 0.00, 0.00, 0.00
12, -184706.19, -187500.02, -187500.02, -187500.02, -185834.39, 187500.00, -187500.02, -187500.02, 0.00, 0.00, 0.00
13, -185122.02, -187500.02, -187500.02, -187500.02, -186380.38, 187500.00, -187500.02, -187500.02, 0.00, 0.00, 0.00
14, -184460.27, -187500.02, -187500.02, -187500.02, -185495.58, 187500.00, -187500.02, -187500.02, 0.00, 0.00, 0.00
15, -183966.11, -187500.02, -187500.02, -187500.02, -184796.19, 187500.00, -187500.02, -187500.02, 0.00, 0.00, 0.00
16, -184552.06, -187500.02, -187500.02, -187500.02, -185574.08, 187500.00, -187500.02, -187500.02, 0.00, 0.00, 0.00
17, -185140.45, -187500.02, -187500.02, -187500.02, -186343.84, 187500.00, -187500.02, -187500.02, 0.00, 0.00, 0.00
18, -184618.41, -187500.02, -187500.02, -187500.02, -185650.34, 187500.00, -187500.02, -187500.02, 0.00, 0.00, 0.00
19, -183974.83, -187500.02, -187500.02, -187500.02, -184750.53, 187500.00, -187500.02, -187500.02, 0.00, 0.00, 0.00
20, -184405.80, -187500.02, -187500.02, -187500.02, -185319.80, 187500.00, -187500.02, -187500.02, 0.00, 0.00, 0.00
21, -185123.56, -187500.02, -187500.02, -187500.02, -186260.34, 187500.00, -187500.02, -187500.02, 0.00, 0.00, 0.00
22, -184773.58, -187500.02, -187500.02, -187500.02, -185788.34, 187500.00, -187500.02, -187500.02, 0.00, 0.00, 0.00
23, -184020.19, -187500.02, -187500.02, -187500.02, -184478.97, 187500.00, -187500.02, -187500.02, 0.00, 0.00, 0.00
24, -184246.50, -187500.02, -187500.02, -187500.02, -184724.94, 187500.00, -187500.02, -187500.02, 0.00, 0.00, 0.00
25, -185030.34, -187500.02, -187500.02, -187500.02, -186319.94, 187500.00, -187500.02, -187500.02, 0.00, 0.00, 0.00
26, -184881.02, -187500.02, -187500.02, -187500.02, -186248.91, 187500.00, -187500.02, -187500.02, 0.00, 0.00, 0.00
27, -184140.61, -187500.02, -187500.02, -187500.02, -185148.41, 187500.00, -187500.02, -187500.02, 0.00, 0.00, 0.00
28, -184169.19, -187500.02, -187500.02, -187500.02, -185192.72, 187500.00, -187500.02, -187500.02, 0.00, 0.00, 0.00
29, -184962.00, -187500.02, -187500.02, -187500.02, -186261.03, 187500.00, -187500.02, -187500.02, 0.00, 0.00, 0.00
30, -185018.70, -187500.02, -187500.02, -187500.02, -186337.09, 187500.00, -187500.02, -187500.02, 0.00, 0.00, 0.00
31, -184245.00, -187500.02, -187500.02, -187500.02, -185253.36, 187500.00, -187500.02, -187500.02, 0.00, 0.00, 0.00
32, -184092.41, -187500.02, -187500.02, -187500.02, -185014.34, 187500.00, -187500.02, -187500.02, 0.00, 0.00, 0.00
33, -184847.44, -187500.02, -187500.02, -187500.02, -186033.86, 187500.00, -187500.02, -187500.02, 0.00, 0.00, 0.00
34, -185112.77, -187500.02, -187500.02, -187500.02, -186384.11, 187500.00, -187500.02, -187500.02, 0.00, 0.00, 0.00
35, -184375.38, -187500.02, -187500.02, -187500.02, -185388.48, 187500.00, -187500.02, -187500.02, 0.00, 0.00, 0.00
36, -184018.17, -187500.02, -187500.02, -187500.02, -184878.02, 187500.00, -187500.02, -187500.02, 0.00, 0.00, 0.00
37, -184701.94, -187500.02, -187500.02, -187500.02, -185784.08, 187500.00, -187500.02, -187500.02, 0.00, 0.00, 0.00
38, -185163.20, -187500.02, -187500.02, -187500.02, -186387.22, 187500.00, -187500.02, -187500.02, 0.00, 0.00, 0.00
39, -184531.23, -187500.02, -187500.02, -187500.02, -185544.02, 187500.00, -187500.02, -187500.02, 0.00, 0.00, 0.00
40, -183998.64, -187500.02, -187500.02, -187500.02, -184792.97, 187500.00, -187500.02, -187500.02, 0.00, 0.00, 0.00
41, -184550.91, -187500.02, -187500.02, -187500.02, -185526.05, 187500.00, -187500.02, -187500.02, 0.00, 0.00, 0.00
42, -185172.94, -187500.02, -187500.02, -187500.02, -186340.92, 187500.00, -187500.02, -187500.02, 0.00, 0.00, 0.00
43, -184691.92, -187500.02, -187500.02, -187500.02, -185699.77, 187500.00, -187500.02, -187500.02, 0.00, 0.00, 0.00
44, -184034.78, -187500.02, -187500.02, -187500.02, -184760.78, 187500.00, -187500.02, -187500.02, 0.00, 0.00, 0.00
45, -184414.11, -187500.02, -187500.02, -187500.02, -185273.14, 187500.00, -187500.02, -187500.02, 0.00, 0.00, 0.00
46, -185152.84, -187500.02, -187500.02, -187500.02, -186245.55, 187500.00, -187500.02, -187500.02, 0.00, 0.00, 0.00
47, -184849.41, -187500.02, -187500.02, -187500.02, -185829.20, 187500.00, -187500.02, -187500.02, 0.00, 0.00, 0.00
48, -184091.17, -187500.02, -187500.02, -187500.02, -184474.78, 187500.00, -187500.02, -187500.02, 0.00, 0.00, 0.00
49, -184265.30, -187500.02, -187500.02, -187500.02, -184673.69, 187500.00, -187500.02, -187500.02, 0.00, 0.00, 0.00
50, -185054.13, -187500.02, -187500.02, -187500.02, -186293.47, 187500.00, -187500.02, -187500.02, 0.00, 0.00, 0.00
51, -184950.31, -187500.02, -187500.02, -187500.02, -186311.70, 187500.00, -187500.02, -187500.02, 0.00, 0.00, 0.00
52, -184189.59, -187500.02, -187500.02, -187500.02, -185208.77, 187500.00, -187500.02, -187500.02, 0.00, 0.00, 0.00
53, -184179.42, -187500.02, -187500.02, -187500.02, -185184.06, 187500.00, -187500.02, -187500.02, 0.00, 0.00, 0.00
54, -184969.55, -187500.02, -187500.02, -187500.02, -186247.36, 187500.00, -187500.02, -187500.02, 0.00, 0.00, 0.00
55, -185075.61, -187500.02, -187500.02, -187500.02, -186388.84, 187500.00, -187500.02, -187500.02, 0.00, 0.00, 0.00
56, -184310.84, -187500.02, -187500.02, -187500.02, -185318.78, 187500.00, -187500.02, -187500.02, 0.00, 0.00, 0.00
57, -184106.63, -187500.02, -187500.02, -187500.02, -185010.30, 187500.00, -187500.02, -187500.02, 0.00, 0.00, 0.00
58, -184848.47, -187500.02, -187500.02, -187500.02, -186010.88, 187500.00, -187500.02, -187500.02, 0.00, 0.00, 0.00
59, -185164.95, -187500.02, -187500.02, -187500.02, -186427.00, 187500.00, -187500.02, -187500.02, 0.00, 0.00, 0.00
60, -184450.36, -187500.02, -187500.02, -187500.02, -185464.47, 187500.00, -187500.02, -187500.02, 0.00, 0.00, 0.00
61, -184045.80, -187500.02, -187500.02, -187500.02, -184891.34, 187500.00, -187500.02, -187500.02, 0.00, 0.00, 0.00
62, -184702.03, -187500.02, -187500.02, -187500.02, -185761.23, 187500.00, -187500.02, -187500.02, 0.00, 0.00, 0.00
63, -185204.80, -187500.02, -187500.02, -187500.02, -186420.06, 187500.00, -187500.02, -187500.02, 0.00, 0.00, 0.00
64, -184608.39, -187500.02, -187500.02, -187500.02, -185618.95, 187500.00, -187500.02, -187500.02, 0.00, 0.00, 0.00
65, -184052.42, -187500.02, -187500.02, -187500.02, -184816.39, 187500.00, -187500.02, -187500.02, 0.00, 0.00, 0.00
66, -184556.61, -187500.02, -187500.02, -187500.02, -185500.00, 187500.00, -187500.02, -187500.02, 0.00, 0.00, 0.00
67, -185211.38, -187500.02, -187500.02, -187500.02, -186359.52, 187500.00, -187500.02, -187500.02, 0.00, 0.00, 0.00
68, -184768.47, -187500.02, -187500.02, -187500.02, -185760.67, 187500.00, -187500.02, -187500.02, 0.00, 0.00, 0.00
69, -184063.13, -187500.02, -187500.02, -187500.02, -184504.38, 187500.00, -187500.02, -187500.02, 0.00, 0.00, 0.00
70, -184391.83, -187500.02, -187500.02, -187500.02, -184934.66, 187500.00, -187500.02, -187500.02, 0.00, 0.00, 0.00
71, -185143.25, -187500.02, -187500.02, -187500.02, -186470.16, 187500.00, -187500.02, -187500.02, 0.00, 0.00, 0.00
72, -184890.14, -187500.02, -187500.02, -187500.02, -186224.92, 187500.00, -187500.02, -187500.02, 0.00, 0.00, 0.00
73, -184170.36, -187500.02, -187500.02, -187500.02, -185145.69, 187500.00, -187500.02, -187500.02, 0.00, 0.00, 0.00
74, -184295.69, -187500.02, -187500.02, -187500.02, -185335.89, 187500.00, -187500.02, -187500.02, 0.00, 0.00, 0.00
75, -185089.11, -187500.02, -187500.02, -187500.02, -186398.72, 187500.00, -187500.02, -187500.02, 0.00, 0.00, 0.00
76, -185037.77, -187500.02, -187500.02, -187500.02, -186332.05, 187500.00, -187500.02, -187500.02, 0.00, 0.00, 0.00
77, -184246.67, -187500.02, -187500.02, -187500.02, -185229.77, 187500.00, -187500.02, -187500.02, 0.00, 0.00, 0.00
78, -184191.36, -187500.02, -187500.02, -187500.02, -185139.02, 187500.00, -187500.02, -187500.02, 0.00, 0.00, 0.00
79, -184985.80, -187500.02, -187500.02, -187500.02, -186193.11, 187500.00, -187500.02, -187500.02, 0.00, 0.00, 0.00
80, -185142.33, -187500.02, -187500.02, -187500.02, -186400.63, 187500.00, -187500.02, -187500.02, 0.00, 0.00, 0.00
81, -184378.55, -187500.02, -187500.02, -187500.02, -185349.23, 187500.00, -187500.02, -187500.02, 0.00, 0.00, 0.00
82, -184122.28, -187500.02, -187500.02, -187500.02, -184975.05, 187500.00, -187500.02, -187500.02, 0.00, 0.00, 0.00
83, -184851.77, -187500.02, -187500.02, -187500.02, -185949.36, 187500.00, -187500.02, -187500.02, 0.00, 0.00, 0.00
84, -185216.77, -187500.02, -187500.02, -187500.02, -186427.20, 187500.00, -187500.02, -187500.02, 0.00, 0.00, 0.00
85, -184524.50, -187500.02, -187500.02, -187500.02, -185498.03, 187500.00, -187500.02, -187500.02, 0.00, 0.00, 0.00
86, -184078.28, -187500.02, -187500.02, -187500.02, -184865.22, 187500.00, -187500.02, -187500.02, 0.00, 0.00, 0.00
87, -184702.38, -187500.02, -187500.02, -187500.02, -185693.41, 187500.00, -187500.02, -187500.02, 0.00, 0.00, 0.00
88, -185245.70, -187500.02, -187500.02, -187500.02, -186405.88, 187500.00, -187500.02, -187500.02, 0.00, 0.00, 0.00
89, -184687.92, -187500.02, -187500.02, -187500.02, -185624.91, 187500.00, -187500.02, -187500.02, 0.00, 0.00, 0.00
90, -184103.89, -187500.02, -187500.02, -187500.02, -184449.77, 187500.00, -187500.02, -187500.02, 0.00, 0.00, 0.00
91, -184542.34, -187500.02, -187500.02, -187500.02, -185186.92, 187500.00, -187500.02, -187500.02, 0.00, 0.00, 0.00
92, -185220.88, -187500.02, -187500.02, -187500.02, -186597.72, 187500.00, -187500.02, -187500.02, 0.00, 0.00, 0.00
93, -184828.06, -187500.02, -187500.02, -187500.02, -186128.84, 187500.00, -187500.02, -187500.02, 0.00, 0.00, 0.00
94, -184147.45, -187500.02, -187500.02, -187500.02, -185118.55, 187500.00, -187500.02, -187500.02, 0.00, 0.00, 0.00
95, -184418.66, -187500.02, -187500.02, -187500.02, -185508.77, 187500.00, -187500.02, -187500.02, 0.00, 0.00, 0.00
96, -185189.81, -187500.02, -187500.02, -187500.02, -186529.86, 187500.00, -187500.02, -187500.02, 0.00, 0.00, 0.00
97, -184981.06, -187500.02, -187500.02, -187500.02, -186254.38, 187500.00, -187500.02, -187500.02, 0.00, 0.00, 0.00
98, -184202.83, -187500.02, -187500.02, -187500.02, -185162.05, 187500.00, -187500.02, -187500.02, 0.00, 0.00, 0.00
99, -184298.70, -187500.02, -187500.02, -187500.02, -185284.47, 187500.00, -187500.02, -187500.02, 0.00, 0.00, 0.00
100, -185110.22, -187500.02, -187500.02, -187500.02, -186355.45, 187500.00, -187500.02, -187500.02, 0.00, 0.00, 0.00
101, -185109.03, -187500.02, -187500.02, -187500.02, -186354.84, 187500.00, -187500.02, -187500.02, 0.00, 0.00, 0.00
102, -184317.19, -187500.02, -187500.02, -187500.02, -185256.92, 187500.00, -187500.02, -187500.02, 0.00, 0.00, 0.00
103, -184212.88, -187500.02, -187500.02, -187500.02, -185095.80, 187500.00, -187500.02, -187500.02, 0.00, 0.00, 0.00
104, -184993.98, -187500.02, -187500.02, -187500.02, -186136.20, 187500.00, -187500.02, -187500.02, 0.00, 0.00, 0.00
105, -185204.22, -187500.02, -187500.02, -187500.02, -186413.30, 187500.00, -187500.02, -187500.02, 0.00, 0.00, 0.00
106, -184445.66, -187500.02, -187500.02, -187500.02, -185387.08, 187500.00, -187500.02, -187500.02, 0.00, 0.00, 0.00
107, -184142.14, -187500.02, -187500.02, -187500.02, -184951.78, 187500.00, -187500.02, -187500.02, 0.00, 0.00, 0.00
108, -184856.77, -187500.02, -187500.02, -187500.02, -185896.66, 187500.00, -187500.02, -187500.02, 0.00, 0.00, 0.00
109, -185266.08, -187500.02, -187500.02, -187500.02, -186434.47, 187500.00, -187500.02, -187500.02, 0.00, 0.00, 0.00
110, -184604.08, -187500.02, -187500.02, -187500.02, -185498.84, 187500.00, -187500.02, -187500.02, 0.00, 0.00, 0.00
111, -184122.75, -187500.02, -187500.02, -187500.02, -184469.09, 187500.00, -187500.02, -187500.02, 0.00, 0.00, 0.00
112, -184685.28, -187500.02, -187500.02, -187500.02, -185457.83, 187500.00, -187500.02, -187500.02, 0.00, 0.00, 0.00
113, -185259.34, -187500.02, -187500.02, -187500.02, -186676.91, 187500.00, -187500.02, -187500.02, 0.00, 0.00, 0.00
114, -184746.66, -187500.02, -187500.02, -187500.02, -186008.63, 187500.00, -187500.02, -187500.02, 0.00, 0.00, 0.00
115, -184162.59, -187500.02, -187500.02, -187500.02, -185110.84, 187500.00, -187500.02, -187500.02, 0.00, 0.00, 0.00
116, -184559.06, -187500.02, -187500.02, -187500.02, -185688.52, 187500.00, -187500.02, -187500.02, 0.00, 0.00, 0.00
117, -185266.72, -187500.02, -187500.02, -187500.02, -186624.52, 187500.00, -187500.02, -187500.02, 0.00, 0.00, 0.00
118, -184912.44, -187500.02, -187500.02, -187500.02, -186153.33, 187500.00, -187500.02, -187500.02, 0.00, 0.00, 0.00
119, -184181.55, -187500.02, -187500.02, -187500.02, -185116.78, 187500.00, -187500.02, -187500.02, 0.00, 0.00, 0.00
120, -184423.70, -187500.02, -187500.02, -187500.02, -185445.28, 187500.00, -187500.02, -187500.02, 0.00, 0.00, 0.00
121, -185213.44, -187500.02, -187500.02, -187500.02, -186484.94, 187500.00, -187500.02, -187500.02, 0.00, 0.00, 0.00
122, -185053.45, -187500.02, -187500.02, -187500.02, -186275.14, 187500.00, -187500.02, -187500.02, 0.00, 0.00, 0.00
123, -184265.36, -187500.02, -187500.02, -187500.02, -185173.52, 187500.00, -187500.02, -187500.02, 0.00, 0.00, 0.00
124, -184315.77, -187500.02, -187500.02, -187500.02, -185228.05, 187500.00, -187500.02, -187500.02, 0.00, 0.00, 0.00
125, -185124.45, -187500.02, -187500.02, -187500.02, -186298.78, 187500.00, -187500.02, -187500.02, 0.00, 0.00, 0.00
126, -185173.11, -187500.02, -187500.02, -187500.02, -186364.97, 187500.00, -187500.02, -187500.02, 0.00, 0.00, 0.00
127, -184386.16, -187500.02, -187500.02, -187500.02, -185278.00, 187500.00, -187500.02, -187500.02, 0.00, 0.00, 0.00
128, -184232.92, -187500.02, -187500.02, -187500.02, -185047.97, 187500.00, -187500.02, -187500.02, 0.00, 0.00, 0.00
129, -185001.94, -187500.02, -187500.02, -187500.02, -186072.23, 187500.00, -187500.02, -187500.02, 0.00, 0.00, 0.00
130, -185262.36, -187500.02, -187500.02, -187500.02, -186413.92, 187500.00, -187500.02, -187500.02, 0.00, 0.00, 0.00
131, -184528.53, -187500.02, -187500.02, -187500.02, -185353.38, 187500.00, -187500.02, -187500.02, 0.00, 0.00, 0.00
132, -184180.36, -187500.02, -187500.02, -187500.02, -184514.81, 187500.00, -187500.02, -187500.02, 0.00, 0.00, 0.00
133, -184842.69, -187500.02, -187500.02, -187500.02, -185734.30, 187500.00, -187500.02, -187500.02, 0.00, 0.00, 0.00
134, -185291.89, -187500.02, -187500.02, -187500.02, -186708.81, 187500.00, -187500.02, -187500.02, 0.00, 0.00, 0.00
135, -184671.17, -187500.02, -187500.02, -187500.02, -185873.05, 187500.00, -187500.02, -187500.02, 0.00, 0.00, 0.00
136, -184178.23, -187500.02, -187500.02, -187500.02, -185125.17, 187500.00, -187500.02, -187500.02, 0.00, 0.00, 0.00
137, -184702.94, -187500.02, -187500.02, -187500.02, -185865.20, 187500.00, -187500.02, -187500.02, 0.00, 0.00, 0.00
138, -185319.52, -187500.02, -187500.02, -187500.02, -186676.33, 187500.00, -187500.02, -187500.02, 0.00, 0.00, 0.00
139, -184833.00, -187500.02, -187500.02, -187500.02, -186025.66, 187500.00, -187500.02, -187500.02, 0.00, 0.00, 0.00
140, -184179.34, -187500.02, -187500.02, -187500.02, -185090.47, 187500.00, -187500.02, -187500.02, 0.00, 0.00, 0.00
141, -184564.67, -187500.02, -187500.02, -187500.02, -185612.05, 187500.00, -187500.02, -187500.02, 0.00, 0.00, 0.00
142, -185300.78, -187500.02, -187500.02, -187500.02, -186579.44, 187500.00, -187500.02, -187500.02, 0.00, 0.00, 0.00
143, -184989.00, -187500.02, -187500.02, -187500.02, -186168.70, 187500.00, -187500.02, -187500.02, 0.00, 0.00, 0.00
144, -184237.02, -187500.02, -187500.02, -187500.02, -185109.03, 187500.00, -187500.02, -187500.02, 0.00, 0.00, 0.00
145, -184437.92, -187500.02, -187500.02, -187500.02, -185374.23, 187500.00, -187500.02, -187500.02, 0.00, 0.00, 0.00
146, -185235.84, -187500.02, -187500.02, -187500.02, -186428.45, 187500.00, -187500.02, -187500.02, 0.00, 0.00, 0.00
147, -185124.73, -187500.02, -187500.02, -187500.02, -186284.58, 187500.00, -187500.02, -187500.02, 0.00, 0.00, 0.00
148, -184332.48, -187500.02, -187500.02, -187500.02, -185180.63, 187500.00, -187500.02, -187500.02, 0.00, 0.00, 0.00
149, -184337.69, -187500.02, -187500.02, -187500.02, -185168.86, 187500.00, -187500.02, -187500.02, 0.00, 0.00, 0.00
150, -185139.81, -187500.02, -187500.02, -187500.02, -186234.11, 187500.00, -187500.02, -187500.02, 0.00, 0.00, 0.00
151, -185240.17, -187500.02, -187500.02, -187500.02, -186368.23, 187500.00, -187500.02, -187500.02, 0.00, 0.00, 0.00
152, -184445.50, -187500.02, -187500.02, -187500.02, -185294.80, 187500.00, -187500.02, -187500.02, 0.00, 0.00, 0.00
153, -184249.92, -187500.02, -187500.02, -187500.02, -184999.81, 187500.00, -187500.02, -187500.02, 0.00, 0.00, 0.00
154, -185007.73, -187500.02, -187500.02, -187500.02, -186003.36, 187500.00, -187500.02, -187500.02, 0.00, 0.00, 0.00
155, -185315.56, -187500.02, -187500.02, -187500.02, -186408.11, 187500.00, -187500.02, -187500.02, 0.00, 0.00, 0.00
156, -184608.45, -187500.02, -187500.02, -187500.02, -185337.53, 187500.00, -187500.02, -187500.02, 0.00, 0.00, 0.00
157, -184223.11, -187500.02, -187500.02, -187500.02, -184432.11, 187500.00, -187500.02, -187500.02, 0.00, 0.00, 0.00
158, -184845.20, -187500.02, -187500.02, -187500.02, -185666.19, 187500.00, -187500.02, -187500.02, 0.00, 0.00, 0.00
159, -185335.67, -187500.02, -187500.02, -187500.02, -186731.23, 187500.00, -187500.02, -187500.02, 0.00, 0.00, 0.00
160, -184743.33, -187500.02, -187500.02, -187500.02, -185943.53, 187500.00, -187500.02, -187500.02, 0.00, 0.00, 0.00
161, -184218.25, -187500.02, -187500.02, -187500.02, -185146.44, 187500.00, -187500.02, -187500.02, 0.00, 0.00, 0.00
162, -184707.80, -187500.02, -187500.02, -187500.02, -185837.34, 187500.00, -187500.02, -187500.02, 0.00, 0.00, 0.00
163, -185356.06, -187500.02, -187500.02, -187500.02, -186691.86, 187500.00, -187500.02, -187500.02, 0.00, 0.00, 0.00
164, -184909.00, -187500.02, -187500.02, -187500.02, -186097.11, 187500.00, -187500.02, -187500.02, 0.00, 0.00, 0.00
165, -184226.64, -187500.02, -187500.02, -187500.02, -185125.44, 187500.00, -187500.02, -187500.02, 0.00, 0.00, 0.00
166, -184568.42, -187500.02, -187500.02, -187500.02, -185586.33, 187500.00, -187500.02, -187500.02, 0.00, 0.00, 0.00
167, -185325.70, -187500.02, -187500.02, -187500.02, -186583.06, 187500.00, -187500.02, -187500.02, 0.00, 0.00, 0.00
168, -185059.72, -187500.02, -187500.02, -187500.02, -186233.59, 187500.00, -187500.02, -187500.02, 0.00, 0.00, 0.00
169, -184278.08, -187500.02, -187500.02, -187500.02, -185156.45, 187500.00, -187500.02, -187500.02, 0.00, 0.00, 0.00
170, -184435.02, -187500.02, -187500.02, -187500.02, -185354.94, 187500.00, -187500.02, -187500.02, 0.00, 0.00, 0.00
171, -185245.94, -187500.02, -187500.02, -187500.02, -186420.73, 187500.00, -187500.02, -187500.02, 0.00, 0.00, 0.00
172, -185186.19, -187500.02, -187500.02, -187500.02, -186344.08, 187500.00, -187500.02, -187500.02, 0.00, 0.00, 0.00
173, -184396.77, -187500.02, -187500.02, -187500.02, -185241.50, 187500.00, -187500.02, -187500.02, 0.00, 0.00, 0.00
174, -184346.83, -187500.02, -187500.02, -187500.02, -185161.73, 187500.00, -187500.02, -187500.02, 0.00, 0.00, 0.00
175, -185143.61, -187500.02, -187500.02, -187500.02, -186217.70, 187500.00, -187500.02, -187500.02, 0.00, 0.00, 0.00
176, -185291.66, -187500.02, -187500.02, -187500.02, -186414.19, 187500.00, -187500.02, -187500.02, 0.00, 0.00, 0.00
177, -184530.11, -187500.02, -187500.02, -187500.02, -185248.70, 187500.00, -187500.02, -187500.02, 0.00, 0.00, 0.00
178, -184284.92, -187500.02, -187500.02, -187500.02, -184561.39, 187500.00, -187500.02, -187500.02, 0.00, 0.00, 0.00
179, -184988.39, -187500.02, -187500.02, -187500.02, -185947.13, 187500.00, -187500.02, -187500.02, 0.00, 0.00, 0.00
180, -185340.92, -187500.02, -187500.02, -187500.02, -186761.73, 187500.00, -187500.02, -187500.02, 0.00, 0.00, 0.00
181, -184669.17, -187500.02, -187500.02, -187500.02, -185835.91, 187500.00, -187500.02, -187500.02, 0.00, 0.00, 0.00
182, -184255.69, -187500.02, -187500.02, -187500.02, -185212.05, 187500.00, -187500.02, -187500.02, 0.00, 0.00, 0.00
183, -184854.38, -187500.02, -187500.02, -187500.02, -186047.44, 187500.00, -187500.02, -187500.02, 0.00, 0.00, 0.00
184, -185390.19, -187500.02, -187500.02, -187500.02, -186751.52, 187500.00, -187500.02, -187500.02, 0.00, 0.00, 0.00
185, -184823.80, -187500.02, -187500.02, -187500.02, -185990.73, 187500.00, -187500.02, -187500.02, 0.00, 0.00, 0.00
186, -184236.69, -187500.02, -187500.02, -187500.02, -185147.39, 187500.00, -187500.02, -187500.02, 0.00, 0.00, 0.00
187, -184709.11, -187500.02, -187500.02, -187500.02, -185788.28, 187500.00, -187500.02, -187500.02, 0.00, 0.00, 0.00
188, -185390.13, -187500.02, -187500.02, -187500.02, -186682.91, 187500.00, -187500.02, -187500.02, 0.00, 0.00, 0.00
189, -184984.17, -187500.02, -187500.02, -187500.02, -186144.52, 187500.00, -187500.02, -187500.02, 0.00, 0.00, 0.00
190, -184277.44, -187500.02, -187500.02, -187500.02, -185141.03, 187500.00, -187500.02, -187500.02, 0.00, 0.00, 0.00
191, -184574.42, -187500.02, -187500.02, -187500.02, -185542.20, 187500.00, -187500.02, -187500.02, 0.00, 0.00, 0.00
192, -185346.45, -187500.02, -187500.02, -187500.02, -186559.61, 187500.00, -187500.02, -187500.02, 0.00, 0.00, 0.00
193, -185127.69, -187500.02, -187500.02, -187500.02, -186273.95, 187500.00, -187500.02, -187500.02, 0.00, 0.00, 0.00
194, -184350.92, -187500.02, -187500.02, -187500.02, -185183.09, 187500.00, -187500.02, -187500.02, 0.00, 0.00, 0.00
195, -184457.67, -187500.02, -187500.02, -187500.02, -185317.13, 187500.00, -187500.02, -187500.02, 0.00, 0.00, 0.00
196, -185266.98, -187500.02, -187500.02, -187500.02, -186388.17, 187500.00, -187500.02, -187500.02, 0.00, 0.00, 0.00
197, -185255.91, -187500.02, -187500.02, -187500.02, -186376.02, 187500.00, -187500.02, -187500.02, 0.00, 0.00, 0.00
198, -184451.34, -187500.02, -187500.02, -187500.02, -185279.34, 187500.00, -187500.02, -187500.02, 0.00, 0.00, 0.00
199, -184356.25, -187500.02, -187500.02, -187500.02, -185131.14, 187500.00, -187500.02, -187500.02, 0.00, 0.00, 0.00
200, -185147.31, -187500.02, -187500.02, -187500.02, -186174.31, 187500.00, -187500.02, -187500.02, 0.00, 0.00, 0.00
201, -185347.30, -187500.02, -187500.02, -187500.02, -186437.95, 187500.00, -187500.02, -187500.02, 0.00, 0.00, 0.00
202, -184599.91, -187500.02, -187500.02, -187500.02, -185274.59, 187500.00, -187500.02, -187500.02, 0.00, 0.00, 0.00
203, -184307.98, -187500.02, -187500.02, -187500.02, -184533.02, 187500.00, -187500.02, -187500.02, 0.00, 0.00, 0.00
204, -184990.03, -187500.02, -187500.02, -187500.02, -185904.44, 187500.00, -187500.02, -187500.02, 0.00, 0.00, 0.00
205, -185387.16, -187500.02, -187500.02, -187500.02, -186794.28, 187500.00, -187500.02, -187500.02, 0.00, 0.00, 0.00
206, -184735.03, -187500.02, -187500.02, -187500.02, -185908.03, 187500.00, -187500.02, -187500.02, 0.00, 0.00, 0.00
207, -184288.73, -187500.02, -187500.02, -187500.02, -185225.38, 187500.00, -187500.02, -187500.02, 0.00, 0.00, 0.00
208, -184853.28, -187500.02, -187500.02, -187500.02, -186017.17, 187500.00, -187500.02, -187500.02, 0.00, 0.00, 0.00
209, -185426.73, -187500.02, -187500.02, -187500.02, -186771.97, 187500.00, -187500.02, -187500.02, 0.00, 0.00, 0.00
210, -184900.70, -187500.02, -187500.02, -187500.02, -186059.53, 187500.00, -187500.02, -187500.02, 0.00, 0.00, 0.00
211, -184293.64, -187500.02, -187500.02, -187500.02, -185171.45, 187500.00, -187500.02, -187500.02, 0.00, 0.00, 0.00
212, -184715.97, -187500.02, -187500.02, -187500.02, -185760.47, 187500.00, -187500.02, -187500.02, 0.00, 0.00, 0.00
213, -185424.30, -187500.02, -187500.02, -187500.02, -186692.33, 187500.00, -187500.02, -187500.02, 0.00, 0.00, 0.00
214, -185061.64, -187500.02, -187500.02, -187500.02, -186211.59, 187500.00, -187500.02, -187500.02, 0.00, 0.00, 0.00
215, -184332.95, -187500.02, -187500.02, -187500.02, -185180.91, 187500.00, -187500.02, -187500.02, 0.00, 0.00, 0.00
216, -184584.55, -187500.02, -187500.02, -187500.02, -185521.02, 187500.00, -187500.02, -187500.02, 0.00, 0.00, 0.00
217, -185370.83, -187500.02, -187500.02, -187500.02, -186556.58, 187500.00, -187500.02, -187500.02, 0.00, 0.00, 0.00
218, -185200.64, -187500.02, -187500.02, -187500.02, -186334.95, 187500.00, -187500.02, -187500.02, 0.00, 0.00, 0.00
219, -184400.48, -187500.02, -187500.02, -187500.02, -185236.45, 187500.00, -187500.02, -187500.02, 0.00, 0.00, 0.00
220, -184466.69, -187500.02, -187500.02, -187500.02, -185308.52, 187500.00, -187500.02, -187500.02, 0.00, 0.00, 0.00
221, -185278.63, -187500.02, -187500.02, -187500.02, -186376.75, 187500.00, -187500.02, -187500.02, 0.00, 0.00, 0.00
222, -185318.11, -187500.02, -187500.02, -187500.02, -186430.47, 187500.00, -187500.02, -187500.02, 0.00, 0.00, 0.00
223, -184526.97, -187500.02, -187500.02, -187500.02, -185197.77, 187500.00, -187500.02, -187500.02, 0.00, 0.00, 0.00
224, -184372.58, -187500.02, -187500.02, -187500.02, -184690.33, 187500.00, -187500.02, -187500.02, 0.00, 0.00, 0.00
225, -185127.28, -187500.02, -187500.02, -187500.02, -186180.77, 187500.00, -187500.02, -187500.02, 0.00, 0.00, 0.00
226, -185374.50, -187500.02, -187500.02, -187500.02, -186805.19, 187500.00, -187500.02, -187500.02, 0.00, 0.00, 0.00
227, -184657.67, -187500.02, -187500.02, -187500.02, -185805.11, 187500.00, -187500.02, -187500.02, 0.00, 0.00, 0.00
228, -184339.20, -187500.02, -187500.02, -187500.02, -185315.83, 187500.00, -187500.02, -187500.02, 0.00, 0.00, 0.00
229, -185002.19, -187500.02, -187500.02, -187500.02, -186232.25, 187500.00, -187500.02, -187500.02, 0.00, 0.00, 0.00
230, -185446.77, -187500.02, -187500.02, -187500.02, -186816.56, 187500.00, -187500.02, -187500.02, 0.00, 0.00, 0.00
231, -184815.38, -187500.02, -187500.02, -187500.02, -185958.39, 187500.00, -187500.02, -187500.02, 0.00, 0.00, 0.00
232, -184318.53, -187500.02, -187500.02, -187500.02, -185221.28, 187500.00, -187500.02, -187500.02, 0.00, 0.00, 0.00
233, -184860.75, -187500.02, -187500.02, -187500.02, -185969.28, 187500.00, -187500.02, -187500.02, 0.00, 0.00, 0.00
234, -185470.13, -187500.02, -187500.02, -187500.02, -186771.22, 187500.00, -187500.02, -187500.02, 0.00, 0.00, 0.00
235, -184979.98, -187500.02, -187500.02, -187500.02, -186111.77, 187500.00, -187500.02, -187500.02, 0.00, 0.00, 0.00
236, -184343.88, -187500.02, -187500.02, -187500.02, -185183.22, 187500.00, -187500.02, -187500.02, 0.00, 0.00, 0.00
237, -184724.06, -187500.02, -187500.02, -187500.02, -185713.67, 187500.00, -187500.02, -187500.02, 0.00, 0.00, 0.00
238, -185454.81, -187500.02, -187500.02, -187500.02, -186676.78, 187500.00, -187500.02, -187500.02, 0.00, 0.00, 0.00
239, -185134.84, -187500.02, -187500.02, -187500.02, -186255.69, 187500.00, -187500.02, -187500.02, 0.00, 0.00, 0.00
240, -184371.39, -187500.02, -187500.02, -187500.02, -185201.81, 187500.00, -187500.02, -187500.02, 0.00, 0.00, 0.00
241, -184584.77, -187500.02, -187500.02, -187500.02, -185478.81, 187500.00, -187500.02, -187500.02, 0.00, 0.00, 0.00
242, -185385.94, -187500.02, -187500.02, -187500.02, -186529.23, 187500.00, -187500.02, -187500.02, 0.00, 0.00, 0.00
243, -185265.88, -187500.02, -187500.02, -187500.02, -186373.27, 187500.00, -187500.02, -187500.02, 0.00, 0.00, 0.00
244, -184476.09, -187500.02, -187500.02, -187500.02, -185271.88, 187500.00, -187500.02, -187500.02, 0.00, 0.00, 0.00
245, -184487.50, -187500.02, -187500.02, -187500.02, -185273.05, 187500.00, -187500.02, -187500.02, 0.00, 0.00, 0.00
246, -185290.50, -187500.02, -187500.02, -187500.02, -186338.78, 187500.00, -187500.02, -187500.02, 0.00, 0.00, 0.00
247, -185380.38, -187500.02, -187500.02, -187500.02, -186458.56, 187500.00, -187500.02, -187500.02, 0.00, 0.00, 0.00
248, -184606.09, -187500.02, -187500.02, -187500.02, -185215.83, 187500.00, -187500.02, -187500.02, 0.00, 0.00, 0.00
249, -184406.92, -187500.02, -187500.02, -187500.02, -184655.06, 187500.00, -187500.02, -187500.02, 0.00, 0.00, 0.00
250, -185135.38, -187500.02, -187500.02, -187500.02, -186134.97, 187500.00, -187500.02, -187500.02, 0.00, 0.00, 0.00
251, -185431.09, -187500.02, -187500.02, -187500.02, -186839.88, 187500.00, -187500.02, -187500.02, 0.00, 0.00, 0.00
252, -184734.72, -187500.02, -187500.02, -187500.02, -185872.23, 187500.00, -187500.02, -187500.02, 0.00, 0.00, 0.00
253, -184371.42, -187500.02, -187500.02, -187500.02, -185319.61, 187500.00, -187500.02, -187500.02, 0.00, 0.00, 0.00
254, -185006.50, -187500.02, -187500.02, -187500.02, -186201.83, 187500.00, -187500.02, -187500.02, 0.00, 0.00, 0.00
255, -185493.91, -187500.02, -187500.02, -187500.02, -186842.61, 187500.00, -187500.02, -187500.02, 0.00, 0.00, 0.00
0, -184891.81, -187500.02, -187500.02, -187500.02, -186026.00, 187500.00, -187500.02, -187500.02, 0.00, 0.00, 0.00
1, -184357.70, -187500.02, -187500.02, -187500.02, -185238.22, 187500.00, -187500.02, -187500.02, 0.00, 0.00, 0.00
2, -184863.56, -187500.02, -187500.02, -187500.02, -185939.42, 187500.00, -187500.02, -187500.02, 0.00, 0.00, 0.00
3, -185506.83, -187500.02, -187500.02, -187500.02, -186785.16, 187500.00, -187500.02, -187500.02, 0.00, 0.00, 0.00
4, -185054.64, -187500.02, -187500.02, -187500.02, -186181.23, 187500.00, -187500.02, -187500.02, 0.00, 0.00, 0.00
5, -184377.25, -187500.02, -187500.02, -187500.02, -185217.28, 187500.00, -187500.02, -187500.02, 0.00, 0.00, 0.00
6, -184726.03, -187500.02, -187500.02, -187500.02, -185690.98, 187500.00, -187500.02, -187500.02, 0.00, 0.00, 0.00
7, -185478.92, -187500.02, -187500.02, -187500.02, -186681.16, 187500.00, -187500.02, -187500.02, 0.00, 0.00, 0.00
8, -185203.73, -187500.02, -187500.02, -187500.02, -186319.59, 187500.00, -187500.02, -187500.02, 0.00, 0.00, 0.00
9, -184440.55, -187500.02, -187500.02, -187500.02, -185245.27, 187500.00, -187500.02, -187500.02, 0.00, 0.00, 0.00
10, -184601.86, -187500.02, -187500.02, -187500.02, -185457.64, 187500.00, -187500.02, -187500.02, 0.00, 0.00, 0.00
11, -185406.86, -187500.02, -187500.02, -187500.02, -186520.16, 187500.00, -187500.02, -187500.02, 0.00, 0.00, 0.00
12, -185336.80, -187500.02, -187500.02, -187500.02, -186429.17, 187500.00, -187500.02, -187500.02, 0.00, 0.00, 0.00
13, -184528.44, -187500.02, -187500.02, -187500.02, -185159.81, 187500.00, -187500.02, -187500.02, 0.00, 0.00, 0.00
14, -184474.06, -187500.02, -187500.02, -187500.02, -184835.47, 187500.00, -187500.02, -187500.02, 0.00, 0.00, 0.00
15, -185265.36, -187500.02, -187500.02, -187500.02, -186392.67, 187500.00, -187500.02, -187500.02, 0.00, 0.00, 0.00
16, -185401.98, -187500.02, -187500.02, -187500.02, -186820.81, 187500.00, -187500.02, -187500.02, 0.00, 0.00, 0.00
17, -184666.66, -187500.02, -187500.02, -187500.02, -185766.38, 187500.00, -187500.02, -187500.02, 0.00, 0.00, 0.00
18, -184439.69, -187500.02, -187500.02, -187500.02, -185413.91, 187500.00, -187500.02, -187500.02, 0.00, 0.00, 0.00
19, -185150.38, -187500.02, -187500.02, -187500.02, -186398.44, 187500.00, -187500.02, -187500.02, 0.00, 0.00, 0.00
20, -185498.70, -187500.02, -187500.02, -187500.02, -186855.81, 187500.00, -187500.02, -187500.02, 0.00, 0.00, 0.00
21, -184813.17, -187500.02, -187500.02, -187500.02, -185915.45, 187500.00, -187500.02, -187500.02, 0.00, 0.00, 0.00
22, -184400.77, -187500.02, -187500.02, -187500.02, -185300.20, 187500.00, -187500.02, -187500.02, 0.00, 0.00, 0.00
23, -185014.64, -187500.02, -187500.02, -187500.02, -186143.63, 187500.00, -187500.02, -187500.02, 0.00, 0.00, 0.00
24, -185543.48, -187500.02, -187500.02, -187500.02, -186838.94, 187500.00, -187500.02, -187500.02, 0.00, 0.00, 0.00
25, -184969.91, -187500.02, -187500.02, -187500.02, -186069.53, 187500.00, -187500.02, -187500.02, 0.00, 0.00, 0.00
26, -184388.27, -187500.02, -187500.02, -187500.02, -185233.69, 187500.00, -187500.02, -187500.02, 0.00, 0.00, 0.00
27, -184867.58, -187500.02, -187500.02, -187500.02, -185884.05, 187500.00, -187500.02, -187500.02, 0.00, 0.00, 0.00
28, -185543.88, -187500.02, -187500.02, -187500.02, -186772.38, 187500.00, -187500.02, -187500.02, 0.00, 0.00, 0.00
29, -185130.38, -187500.02, -187500.02, -187500.02, -186222.84, 187500.00, -187500.02, -187500.02, 0.00, 0.00, 0.00
30, -184426.50, -187500.02, -187500.02, -187500.02, -185224.58, 187500.00, -187500.02, -187500.02, 0.00, 0.00, 0.00
31, -184730.44, -187500.02, -187500.02, -187500.02, -185637.80, 187500.00, -187500.02, -187500.02, 0.00, 0.00, 0.00
32, -185500.45, -187500.02, -187500.02, -187500.02, -186651.91, 187500.00, -187500.02, -187500.02, 0.00, 0.00, 0.00
33, -185273.69, -187500.02, -187500.02, -187500.02, -186354.33, 187500.00, -187500.02, -187500.02, 0.00, 0.00, 0.00
34, -184495.63, -187500.02, -187500.02, -187500.02, -185089.06, 187500.00, -187500.02, -187500.02, 0.00, 0.00, 0.00
35, -184597.22, -187500.02, -187500.02, -187500.02, -185015.00, 187500.00, -187500.02, -187500.02, 0.00, 0.00, 0.00
36, -185394.06, -187500.02, -187500.02, -187500.02, -186602.17, 187500.00, -187500.02, -187500.02, 0.00, 0.00, 0.00
37, -185374.97, -187500.02, -187500.02, -187500.02, -186761.06, 187500.00, -187500.02, -187500.02, 0.00, 0.00, 0.00
38, -184610.58, -187500.02, -187500.02, -187500.02, -185661.98, 187500.00, -187500.02, -187500.02, 0.00, 0.00, 0.00
39, -184522.19, -187500.02, -187500.02, -187500.02, -185524.30, 187500.00, -187500.02, -187500.02, 0.00, 0.00, 0.00
40, -185293.94, -187500.02, -187500.02, -187500.02, -186568.27, 187500.00, -187500.02, -187500.02, 0.00, 0.00, 0.00
41, -185484.16, -187500.02, -187500.02, -187500.02, -186820.59, 187500.00, -187500.02, -187500.02, 0.00, 0.00, 0.00
42, -184740.64, -187500.02, -187500.02, -187500.02, -185785.84, 187500.00, -187500.02, -187500.02, 0.00, 0.00, 0.00
43, -184460.16, -187500.02, -187500.02, -187500.02, -185369.69, 187500.00, -187500.02, -187500.02, 0.00, 0.00, 0.00
44, -185164.77, -187500.02, -187500.02, -187500.02, -186325.56, 187500.00, -187500.02, -187500.02, 0.00, 0.00, 0.00
45, -185558.52, -187500.02, -187500.02, -187500.02, -186842.45, 187500.00, -187500.02, -187500.02, 0.00, 0.00, 0.00
46, -184883.61, -187500.02, -187500.02, -187500.02, -185937.92, 187500.00, -187500.02, -187500.02, 0.00, 0.00, 0.00
47, -184406.98, -187500.02, -187500.02, -187500.02, -185265.69, 187500.00, -187500.02, -187500.02, 0.00, 0.00, 0.00
48, -185009.09, -187500.02, -187500.02, -187500.02, -186065.91, 187500.00, -187500.02, -187500.02, 0.00, 0.00, 0.00
49, -185578.91, -187500.02, -187500.02, -187500.02, -186812.83, 187500.00, -187500.02, -187500.02, 0.00, 0.00, 0.00
50, -185045.92, -187500.02, -187500.02, -187500.02, -186093.78, 187500.00, -187500.02, -187500.02, 0.00, 0.00, 0.00
51, -184445.92, -187500.02, -187500.02, -187500.02, -185213.59, 187500.00, -187500.02, -187500.02, 0.00, 0.00, 0.00
52, -184875.92, -187500.02, -187500.02, -187500.02, -185809.13, 187500.00, -187500.02, -187500.02, 0.00, 0.00, 0.00
53, -185578.95, -187500.02, -187500.02, -187500.02, -186735.41, 187500.00, -187500.02, -187500.02, 0.00, 0.00, 0.00
54, -185208.25, -187500.02, -187500.02, -187500.02, -186239.91, 187500.00, -187500.02, -187500.02, 0.00, 0.00, 0.00
55, -184479.22, -187500.02, -187500.02, -187500.02, -184976.19, 187500.00, -187500.02, -187500.02, 0.00, 0.00, 0.00
56, -184720.63, -187500.02, -187500.02, -187500.02, -185217.56, 187500.00, -187500.02, -187500.02, 0.00, 0.00, 0.00
57, -185496.70, -187500.02, -187500.02, -187500.02, -186787.91, 187500.00, -187500.02, -187500.02, 0.00, 0.00, 0.00
58, -185320.56, -187500.02, -187500.02, -187500.02, -186671.19, 187500.00, -187500.02, -187500.02, 0.00, 0.00, 0.00
59, -184580.86, -187500.02, -187500.02, -187500.02, -185573.03, 187500.00, -187500.02, -187500.02, 0.00, 0.00, 0.00
60, -184633.42, -187500.02, -187500.02, -187500.02, -185650.59, 187500.00, -187500.02, -187500.02, 0.00, 0.00, 0.00
61, -185427.09, -187500.02, -187500.02, -187500.02, -186721.97, 187500.00, -187500.02, -187500.02, 0.00, 0.00, 0.00
62, -185458.59, -187500.02, -187500.02, -187500.02, -186765.30, 187500.00, -187500.02, -187500.02, 0.00, 0.00, 0.00
63, -184681.81, -187500.02, -187500.02, -187500.02, -185674.23, 187500.00, -187500.02, -187500.02, 0.00, 0.00, 0.00
64, -184546.33, -187500.02, -187500.02, -187500.02, -185466.20, 187500.00, -187500.02, -187500.02, 0.00, 0.00, 0.00
65, -185311.69, -187500.02, -187500.02, -187500.02, -186497.50, 187500.00, -187500.02, -187500.02, 0.00, 0.00, 0.00
66, -185554.25, -187500.02, -187500.02, -187500.02, -186817.97, 187500.00, -187500.02, -187500.02, 0.00, 0.00, 0.00
67, -184804.38, -187500.02, -187500.02, -187500.02, -185809.08, 187500.00, -187500.02, -187500.02, 0.00, 0.00, 0.00
68, -184474.03, -187500.02, -187500.02, -187500.02, -185329.97, 187500.00, -187500.02, -187500.02, 0.00, 0.00, 0.00
69, -185170.06, -187500.02, -187500.02, -187500.02, -186253.80, 187500.00, -187500.02, -187500.02, 0.00, 0.00, 0.00
70, -185608.41, -187500.02, -187500.02, -187500.02, -186830.58, 187500.00, -187500.02, -187500.02, 0.00, 0.00, 0.00
71, -184963.83, -187500.02, -187500.02, -187500.02, -185965.17, 187500.00, -187500.02, -187500.02, 0.00, 0.00, 0.00
72, -184463.53, -187500.02, -187500.02, -187500.02, -185238.25, 187500.00, -187500.02, -187500.02, 0.00, 0.00, 0.00
73, -185022.61, -187500.02, -187500.02, -187500.02, -185994.88, 187500.00, -187500.02, -187500.02, 0.00, 0.00, 0.00
74, -185627.13, -187500.02, -187500.02, -187500.02, -186790.30, 187500.00, -187500.02, -187500.02, 0.00, 0.00, 0.00
75, -185119.88, -187500.02, -187500.02, -187500.02, -186121.42, 187500.00, -187500.02, -187500.02, 0.00, 0.00, 0.00
76, -184445.06, -187500.02, -187500.02, -187500.02, -185201.52, 187500.00, -187500.02, -187500.02, 0.00, 0.00, 0.00
77, -184862.98, -187500.02, -187500.02, -187500.02, -185743.64, 187500.00, -187500.02, -187500.02, 0.00, 0.00, 0.00
78, -185594.84, -187500.02, -187500.02, -187500.02, -186700.53, 187500.00, -187500.02, -187500.02, 0.00, 0.00, 0.00
79, -185268.91, -187500.02, -187500.02, -187500.02, -186254.16, 187500.00, -187500.02, -187500.02, 0.00, 0.00, 0.00
80, -184533.81, -187500.02, -187500.02, -187500.02, -184911.19, 187500.00, -187500.02, -187500.02, 0.00, 0.00, 0.00
81, -184726.52, -187500.02, -187500.02, -187500.02, -185152.03, 187500.00, -187500.02, -187500.02, 0.00, 0.00, 0.00
82, -185506.33, -187500.02, -187500.02, -187500.02, -186763.53, 187500.00, -187500.02, -187500.02, 0.00, 0.00, 0.00
83, -185378.41, -187500.02, -187500.02, -187500.02, -186735.77, 187500.00, -187500.02, -187500.02, 0.00, 0.00, 0.00
84, -184618.89, -187500.02, -187500.02, -187500.02, -185632.03, 187500.00, -187500.02, -187500.02, 0.00, 0.00, 0.00
85, -184628.52, -187500.02, -187500.02, -187500.02, -185642.45, 187500.00, -187500.02, -187500.02, 0.00, 0.00, 0.00
86, -185423.16, -187500.02, -187500.02, -187500.02, -186710.42, 187500.00, -187500.02, -187500.02, 0.00, 0.00, 0.00
87, -185504.75, -187500.02, -187500.02, -187500.02, -186820.14, 187500.00, -187500.02, -187500.02, 0.00, 0.00, 0.00
88, -184744.30, -187500.02, -187500.02, -187500.02, -185739.77, 187500.00, -187500.02, -187500.02, 0.00, 0.00, 0.00
89, -184566.33, -187500.02, -187500.02, -187500.02, -185465.47, 187500.00, -187500.02, -187500.02, 0.00, 0.00, 0.00
90, -185307.38, -187500.02, -187500.02, -187500.02, -186478.30, 187500.00, -187500.02, -187500.02, 0.00, 0.00, 0.00
91, -185598.89, -187500.02, -187500.02, -187500.02, -186862.44, 187500.00, -187500.02, -187500.02, 0.00, 0.00, 0.00
92, -184879.91, -187500.02, -187500.02, -187500.02, -185881.89, 187500.00, -187500.02, -187500.02, 0.00, 0.00, 0.00
93, -184508.59, -187500.02, -187500.02, -187500.02, -185337.69, 187500.00, -187500.02, -187500.02, 0.00, 0.00, 0.00
94, -185168.86, -187500.02, -187500.02, -187500.02, -186226.61, 187500.00, -187500.02, -187500.02, 0.00, 0.00, 0.00
95, -185650.14, -187500.02, -187500.02, -187500.02, -186859.55, 187500.00, -187500.02, -187500.02, 0.00, 0.00, 0.00
96, -185041.53, -187500.02, -187500.02, -187500.02, -186036.31, 187500.00, -187500.02, -187500.02, 0.00, 0.00, 0.00
97, -184513.78, -187500.02, -187500.02, -187500.02, -185257.75, 187500.00, -187500.02, -187500.02, 0.00, 0.00, 0.00
98, -185025.44, -187500.02, -187500.02, -187500.02, -185966.55, 187500.00, -187500.02, -187500.02, 0.00, 0.00, 0.00
99, -185664.45, -187500.02, -187500.02, -187500.02, -186807.47, 187500.00, -187500.02, -187500.02, 0.00, 0.00, 0.00
100, -185199.47, -187500.02, -187500.02, -187500.02, -186179.11, 187500.00, -187500.02, -187500.02, 0.00, 0.00, 0.00
101, -184506.09, -187500.02, -187500.02, -187500.02, -184929.44, 187500.00, -187500.02, -187500.02, 0.00, 0.00, 0.00
102, -184856.72, -187500.02, -187500.02, -187500.02, -185416.86, 187500.00, -187500.02, -187500.02, 0.00, 0.00, 0.00
103, -185599.36, -187500.02, -187500.02, -187500.02, -186933.64, 187500.00, -187500.02, -187500.02, 0.00, 0.00, 0.00
104, -185321.02, -187500.02, -187500.02, -187500.02, -186645.53, 187500.00, -187500.02, -187500.02, 0.00, 0.00, 0.00
105, -184606.00, -187500.02, -187500.02, -187500.02, -185573.14, 187500.00, -187500.02, -187500.02, 0.00, 0.00, 0.00
106, -184756.25, -187500.02, -187500.02, -187500.02, -185797.34, 187500.00, -187500.02, -187500.02, 0.00, 0.00, 0.00
107, -185547.69, -187500.02, -187500.02, -187500.02, -186858.44, 187500.00, -187500.02, -187500.02, 0.00, 0.00, 0.00
108, -185470.02, -187500.02, -187500.02, -187500.02, -186758.45, 187500.00, -187500.02, -187500.02, 0.00, 0.00, 0.00
109, -184678.89, -187500.02, -187500.02, -187500.02, -185655.02, 187500.00, -187500.02, -187500.02, 0.00, 0.00, 0.00
110, -184645.91, -187500.02, -187500.02, -187500.02, -185599.33, 187500.00, -187500.02, -187500.02, 0.00, 0.00, 0.00
111, -185445.98, -187500.02, -187500.02, -187500.02, -186660.03, 187500.00, -187500.02, -187500.02, 0.00, 0.00, 0.00
112, -185577.19, -187500.02, -187500.02, -187500.02, -186834.89, 187500.00, -187500.02, -187500.02, 0.00, 0.00, 0.00
113, -184813.67, -187500.02, -187500.02, -187500.02, -185773.19, 187500.00, -187500.02, -187500.02, 0.00, 0.00, 0.00
114, -184593.27, -187500.02, -187500.02, -187500.02, -185434.56, 187500.00, -187500.02, -187500.02, 0.00, 0.00, 0.00
115, -185321.59, -187500.02, -187500.02, -187500.02, -186422.80, 187500.00, -187500.02, -187500.02, 0.00, 0.00, 0.00
116, -185660.64, -187500.02, -187500.02, -187500.02, -186868.67, 187500.00, -187500.02, -187500.02, 0.00, 0.00, 0.00
117, -184952.91, -187500.02, -187500.02, -187500.02, -185921.02, 187500.00, -187500.02, -187500.02, 0.00, 0.00, 0.00
118, -184530.09, -187500.02, -187500.02, -187500.02, -185318.55, 187500.00, -187500.02, -187500.02, 0.00, 0.00, 0.00
119, -185171.36, -187500.02, -187500.02, -187500.02, -186170.53, 187500.00, -187500.02, -187500.02, 0.00, 0.00, 0.00
120, -185691.38, -187500.02, -187500.02, -187500.02, -186854.70, 187500.00, -187500.02, -187500.02, 0.00, 0.00, 0.00
121, -185113.81, -187500.02, -187500.02, -187500.02, -186047.31, 187500.00, -187500.02, -187500.02, 0.00, 0.00, 0.00
122, -184546.02, -187500.02, -187500.02, -187500.02, -184896.22, 187500.00, -187500.02, -187500.02, 0.00, 0.00, 0.00
123, -185005.63, -187500.02, -187500.02, -187500.02, -185674.86, 187500.00, -187500.02, -187500.02, 0.00, 0.00, 0.00
124, -185668.20, -187500.02, -187500.02, -187500.02, -187052.52, 187500.00, -187500.02, -187500.02, 0.00, 0.00, 0.00
125, -185251.20, -187500.02, -187500.02, -187500.02, -186545.55, 187500.00, -187500.02, -187500.02, 0.00, 0.00, 0.00
126, -184582.28, -187500.02, -187500.02, -187500.02, -185550.91, 187500.00, -187500.02, -187500.02, 0.00, 0.00, 0.00
127, -184876.61, -187500.02, -187500.02, -187500.02, -185972.44, 187500.00, -187500.02, -187500.02, 0.00, 0.00, 0.00
128, -185638.36, -187500.02, -187500.02, -187500.02, -186983.80, 187500.00, -187500.02, -187500.02, 0.00, 0.00, 0.00
129, -185403.73, -187500.02, -187500.02, -187500.02, -186674.91, 187500.00, -187500.02, -187500.02, 0.00, 0.00, 0.00
130, -184646.44, -187500.02, -187500.02, -187500.02, -185590.08, 187500.00, -187500.02, -187500.02, 0.00, 0.00, 0.00
131, -184764.34, -187500.02, -187500.02, -187500.02, -185747.30, 187500.00, -187500.02, -187500.02, 0.00, 0.00, 0.00
132, -185568.64, -187500.02, -187500.02, -187500.02, -186818.17, 187500.00, -187500.02, -187500.02, 0.00, 0.00, 0.00
133, -185539.05, -187500.02, -187500.02, -187500.02, -186782.34, 187500.00, -187500.02, -187500.02, 0.00, 0.00, 0.00
134, -184732.41, -187500.02, -187500.02, -187500.02, -185682.86, 187500.00, -187500.02, -187500.02, 0.00, 0.00, 0.00
135, -184653.25, -187500.02, -187500.02, -187500.02, -185556.73, 187500.00, -187500.02, -187500.02, 0.00, 0.00, 0.00
136, -185448.69, -187500.02, -187500.02, -187500.02, -186607.02, 187500.00, -187500.02, -187500.02, 0.00, 0.00, 0.00
137, -185629.75, -187500.02, -187500.02, -187500.02, -186848.31, 187500.00, -187500.02, -187500.02, 0.00, 0.00, 0.00
138, -184879.14, -187500.02, -187500.02, -187500.02, -185808.41, 187500.00, -187500.02, -187500.02, 0.00, 0.00, 0.00
139, -184612.64, -187500.02, -187500.02, -187500.02, -185404.16, 187500.00, -187500.02, -187500.02, 0.00, 0.00, 0.00
140, -185321.50, -187500.02, -187500.02, -187500.02, -186366.97, 187500.00, -187500.02, -187500.02, 0.00, 0.00, 0.00
141, -185705.66, -187500.02, -187500.02, -187500.02, -186872.48, 187500.00, -187500.02, -187500.02, 0.00, 0.00, 0.00
142, -185024.63, -187500.02, -187500.02, -187500.02, -185961.19, 187500.00, -187500.02, -187500.02, 0.00, 0.00, 0.00
143, -184556.92, -187500.02, -187500.02, -187500.02, -185300.69, 187500.00, -187500.02, -187500.02, 0.00, 0.00, 0.00
144, -185165.69, -187500.02, -187500.02, -187500.02, -186108.70, 187500.00, -187500.02, -187500.02, 0.00, 0.00, 0.00
145, -185728.80, -187500.02, -187500.02, -187500.02, -186847.02, 187500.00, -187500.02, -187500.02, 0.00, 0.00, 0.00
146, -185183.61, -187500.02, -187500.02, -187500.02, -186076.20, 187500.00, -187500.02, -187500.02, 0.00, 0.00, 0.00
147, -184568.81, -187500.02, -187500.02, -187500.02, -184864.92, 187500.00, -187500.02, -187500.02, 0.00, 0.00, 0.00
148, -184999.33, -187500.02, -187500.02, -187500.02, -185620.39, 187500.00, -187500.02, -187500.02, 0.00, 0.00, 0.00
149, -185688.73, -187500.02, -187500.02, -187500.02, -187060.73, 187500.00, -187500.02, -187500.02, 0.00, 0.00, 0.00
150, -185316.55, -187500.02, -187500.02, -187500.02, -186626.53, 187500.00, -187500.02, -187500.02, 0.00, 0.00, 0.00
151, -184640.89, -187500.02, -187500.02, -187500.02, -185603.09, 187500.00, -187500.02, -187500.02, 0.00, 0.00, 0.00
152, -184884.33, -187500.02, -187500.02, -187500.02, -185963.73, 187500.00, -187500.02, -187500.02, 0.00, 0.00, 0.00
153, -185656.88, -187500.02, -187500.02, -187500.02, -186993.95, 187500.00, -187500.02, -187500.02, 0.00, 0.00, 0.00
154, -185470.55, -187500.02, -187500.02, -187500.02, -186748.86, 187500.00, -187500.02, -187500.02, 0.00, 0.00, 0.00
155, -184716.98, -187500.02, -187500.02, -187500.02, -185650.66, 187500.00, -187500.02, -187500.02, 0.00, 0.00, 0.00
156, -184784.70, -187500.02, -187500.02, -187500.02, -185743.03, 187500.00, -187500.02, -187500.02, 0.00, 0.00, 0.00
157, -185583.53, -187500.02, -187500.02, -187500.02, -186814.84, 187500.00, -187500.02, -187500.02, 0.00, 0.00, 0.00
158, -185604.75, -187500.02, -187500.02, -187500.02, -186845.47, 187500.00, -187500.02, -187500.02, 0.00, 0.00, 0.00
159, -184812.84, -187500.02, -187500.02, -187500.02, -185752.31, 187500.00, -187500.02, -187500.02, 0.00, 0.00, 0.00
160, -184686.02, -187500.02, -187500.02, -187500.02, -185558.67, 187500.00, -187500.02, -187500.02, 0.00, 0.00, 0.00
161, -185462.50, -187500.02, -187500.02, -187500.02, -186593.55, 187500.00, -187500.02, -187500.02, 0.00, 0.00, 0.00
162, -185695.02, -187500.02, -187500.02, -187500.02, -186901.17, 187500.00, -187500.02, -187500.02, 0.00, 0.00, 0.00
163, -184952.16, -187500.02, -187500.02, -187500.02, -185888.19, 187500.00, -187500.02, -187500.02, 0.00, 0.00, 0.00
164, -184634.25, -187500.02, -187500.02, -187500.02, -185420.52, 187500.00, -187500.02, -187500.02, 0.00, 0.00, 0.00
165, -185326.17, -187500.02, -187500.02, -187500.02, -186351.88, 187500.00, -187500.02, -187500.02, 0.00, 0.00, 0.00
166, -185755.64, -187500.02, -187500.02, -187500.02, -186917.69, 187500.00, -187500.02, -187500.02, 0.00, 0.00, 0.00
167, -185100.25, -187500.02, -187500.02, -187500.02, -186005.52, 187500.00, -187500.02, -187500.02, 0.00, 0.00, 0.00
168, -184583.78, -187500.02, -187500.02, -187500.02, -184952.72, 187500.00, -187500.02, -187500.02, 0.00, 0.00, 0.00
169, -185142.98, -187500.02, -187500.02, -187500.02, -185905.39, 187500.00, -187500.02, -187500.02, 0.00, 0.00, 0.00
170, -185737.11, -187500.02, -187500.02, -187500.02, -187149.08, 187500.00, -187500.02, -187500.02, 0.00, 0.00, 0.00
171, -185239.97, -187500.02, -187500.02, -187500.02, -186506.30, 187500.00, -187500.02, -187500.02, 0.00, 0.00, 0.00
172, -184644.58, -187500.02, -187500.02, -187500.02, -185592.23, 187500.00, -187500.02, -187500.02, 0.00, 0.00, 0.00
173, -185020.27, -187500.02, -187500.02, -187500.02, -186142.70, 187500.00, -187500.02, -187500.02, 0.00, 0.00, 0.00
174, -185737.67, -187500.02, -187500.02, -187500.02, -187094.98, 187500.00, -187500.02, -187500.02, 0.00, 0.00, 0.00
175, -185404.63, -187500.02, -187500.02, -187500.02, -186652.28, 187500.00, -187500.02, -187500.02, 0.00, 0.00, 0.00
176, -184677.55, -187500.02, -187500.02, -187500.02, -185603.58, 187500.00, -187500.02, -187500.02, 0.00, 0.00, 0.00
177, -184890.19, -187500.02, -187500.02, -187500.02, -185901.17, 187500.00, -187500.02, -187500.02, 0.00, 0.00, 0.00
178, -185683.69, -187500.02, -187500.02, -187500.02, -186950.72, 187500.00, -187500.02, -187500.02, 0.00, 0.00, 0.00
179, -185546.73, -187500.02, -187500.02, -187500.02, -186772.75, 187500.00, -187500.02, -187500.02, 0.00, 0.00, 0.00
180, -184758.53, -187500.02, -187500.02, -187500.02, -185671.67, 187500.00, -187500.02, -187500.02, 0.00, 0.00, 0.00
181, -184783.81, -187500.02, -187500.02, -187500.02, -185696.20, 187500.00, -187500.02, -187500.02, 0.00, 0.00, 0.00
182, -185591.09, -187500.02, -187500.02, -187500.02, -186765.25, 187500.00, -187500.02, -187500.02, 0.00, 0.00, 0.00
183, -185661.98, -187500.02, -187500.02, -187500.02, -186862.41, 187500.00, -187500.02, -187500.02, 0.00, 0.00, 0.00
184, -184873.86, -187500.02, -187500.02, -187500.02, -185780.42, 187500.00, -187500.02, -187500.02, 0.00, 0.00, 0.00
185, -184704.50, -187500.02, -187500.02, -187500.02, -185521.53, 187500.00, -187500.02, -187500.02, 0.00, 0.00, 0.00
186, -185463.17, -187500.02, -187500.02, -187500.02, -186536.92, 187500.00, -187500.02, -187500.02, 0.00, 0.00, 0.00
187, -185745.78, -187500.02, -187500.02, -187500.02, -186910.22, 187500.00, -187500.02, -187500.02, 0.00, 0.00, 0.00
188, -185020.27, -187500.02, -187500.02, -187500.02, -185925.42, 187500.00, -187500.02, -187500.02, 0.00, 0.00, 0.00
189, -184659.36, -187500.02, -187500.02, -187500.02, -185394.70, 187500.00, -187500.02, -187500.02, 0.00, 0.00, 0.00
190, -185323.17, -187500.02, -187500.02, -187500.02, -186290.58, 187500.00, -187500.02, -187500.02, 0.00, 0.00, 0.00
191, -185796.17, -187500.02, -187500.02, -187500.02, -186912.97, 187500.00, -187500.02, -187500.02, 0.00, 0.00, 0.00
192, -185177.77, -187500.02, -187500.02, -187500.02, -186019.53, 187500.00, -187500.02, -187500.02, 0.00, 0.00, 0.00
193, -184635.44, -187500.02, -187500.02, -187500.02, -184902.16, 187500.00, -187500.02, -187500.02, 0.00, 0.00, 0.00
194, -185147.34, -187500.02, -187500.02, -187500.02, -185850.30, 187500.00, -187500.02, -187500.02, 0.00, 0.00, 0.00
195, -185772.77, -187500.02, -187500.02, -187500.02, -187168.38, 187500.00, -187500.02, -187500.02, 0.00, 0.00, 0.00
196, -185312.56, -187500.02, -187500.02, -187500.02, -186590.25, 187500.00, -187500.02, -187500.02, 0.00, 0.00, 0.00
197, -184689.42, -187500.02, -187500.02, -187500.02, -185636.95, 187500.00, -187500.02, -187500.02, 0.00, 0.00, 0.00
198, -185027.47, -187500.02, -187500.02, -187500.02, -186130.22, 187500.00, -187500.02, -187500.02, 0.00, 0.00, 0.00
199, -185764.17, -187500.02, -187500.02, -187500.02, -187111.25, 187500.00, -187500.02, -187500.02, 0.00, 0.00, 0.00
200, -185474.44, -187500.02, -187500.02, -187500.02, -186728.14, 187500.00, -187500.02, -187500.02, 0.00, 0.00, 0.00
201, -184731.42, -187500.02, -187500.02, -187500.02, -185659.55, 187500.00, -187500.02, -187500.02, 0.00, 0.00, 0.00
202, -184900.98, -187500.02, -187500.02, -187500.02, -185893.58, 187500.00, -187500.02, -187500.02, 0.00, 0.00, 0.00
203, -185700.61, -187500.02, -187500.02, -187500.02, -186955.17, 187500.00, -187500.02, -187500.02, 0.00, 0.00, 0.00
204, -185612.59, -187500.02, -187500.02, -187500.02, -186842.72, 187500.00, -187500.02, -187500.02, 0.00, 0.00, 0.00
205, -184817.98, -187500.02, -187500.02, -187500.02, -185738.05, 187500.00, -187500.02, -187500.02, 0.00, 0.00, 0.00
206, -184798.72, -187500.02, -187500.02, -187500.02, -185692.91, 187500.00, -187500.02, -187500.02, 0.00, 0.00, 0.00
207, -185596.83, -187500.02, -187500.02, -187500.02, -186756.17, 187500.00, -187500.02, -187500.02, 0.00, 0.00, 0.00
208, -185718.09, -187500.02, -187500.02, -187500.02, -186920.23, 187500.00, -187500.02, -187500.02, 0.00, 0.00, 0.00
209, -184944.81, -187500.02, -187500.02, -187500.02, -185856.89, 187500.00, -187500.02, -187500.02, 0.00, 0.00, 0.00
210, -184724.52, -187500.02, -187500.02, -187500.02, -185529.36, 187500.00, -187500.02, -187500.02, 0.00, 0.00, 0.00
211, -185466.88, -187500.02, -187500.02, -187500.02, -186522.95, 187500.00, -187500.02, -187500.02, 0.00, 0.00, 0.00
212, -185799.25, -187500.02, -187500.02, -187500.02, -186961.70, 187500.00, -187500.02, -187500.02, 0.00, 0.00, 0.00
213, -185089.25, -187500.02, -187500.02, -187500.02, -186008.28, 187500.00, -187500.02, -187500.02, 0.00, 0.00, 0.00
214, -184670.98, -187500.02, -187500.02, -187500.02, -185416.09, 187500.00, -187500.02, -187500.02, 0.00, 0.00, 0.00
215, -185316.78, -187500.02, -187500.02, -187500.02, -186273.16, 187500.00, -187500.02, -187500.02, 0.00, 0.00, 0.00
216, -185831.09, -187500.02, -187500.02, -187500.02, -186948.44, 187500.00, -187500.02, -187500.02, 0.00, 0.00, 0.00
217, -185250.25, -187500.02, -187500.02, -187500.02, -186107.56, 187500.00, -187500.02, -187500.02, 0.00, 0.00, 0.00
218, -184685.03, -187500.02, -187500.02, -187500.02, -184938.06, 187500.00, -187500.02, -187500.02, 0.00, 0.00, 0.00
219, -185148.25, -187500.02, -187500.02, -187500.02, -185806.05, 187500.00, -187500.02, -187500.02, 0.00, 0.00, 0.00
220, -185806.52, -187500.02, -187500.02, -187500.02, -187181.86, 187500.00, -187500.02, -187500.02, 0.00, 0.00, 0.00
221, -185386.86, -187500.02, -187500.02, -187500.02, -186667.55, 187500.00, -187500.02, -187500.02, 0.00, 0.00, 0.00
222, -184737.14, -187500.02, -187500.02, -187500.02, -185678.19, 187500.00, -187500.02, -187500.02, 0.00, 0.00, 0.00
223, -185032.30, -187500.02, -187500.02, -187500.02, -186111.14, 187500.00, -187500.02, -187500.02, 0.00, 0.00, 0.00
224, -185786.89, -187500.02, -187500.02, -187500.02, -187117.16, 187500.00, -187500.02, -187500.02, 0.00, 0.00, 0.00
225, -185545.83, -187500.02, -187500.02, -187500.02, -186799.69, 187500.00, -187500.02, -187500.02, 0.00, 0.00, 0.00
226, -184789.13, -187500.02, -187500.02, -187500.02, -185715.44, 187500.00, -187500.02, -187500.02, 0.00, 0.00, 0.00
227, -184914.05, -187500.02, -187500.02, -187500.02, -185886.91, 187500.00, -187500.02, -187500.02, 0.00, 0.00, 0.00
228, -185716.55, -187500.02, -187500.02, -187500.02, -186953.16, 187500.00, -187500.02, -187500.02, 0.00, 0.00, 0.00
229, -185677.36, -187500.02, -187500.02, -187500.02, -186905.30, 187500.00, -187500.02, -187500.02, 0.00, 0.00, 0.00
230, -184885.08, -187500.02, -187500.02, -187500.02, -185803.55, 187500.00, -187500.02, -187500.02, 0.00, 0.00, 0.00
231, -184811.61, -187500.02, -187500.02, -187500.02, -185691.73, 187500.00, -187500.02, -187500.02, 0.00, 0.00, 0.00
232, -185602.22, -187500.02, -187500.02, -187500.02, -186743.16, 187500.00, -187500.02, -187500.02, 0.00, 0.00, 0.00
233, -185775.17, -187500.02, -187500.02, -187500.02, -186974.66, 187500.00, -187500.02, -187500.02, 0.00, 0.00, 0.00
234, -185022.23, -187500.02, -187500.02, -187500.02, -185931.80, 187500.00, -187500.02, -187500.02, 0.00, 0.00, 0.00
235, -184764.41, -187500.02, -187500.02, -187500.02, -185536.92, 187500.00, -187500.02, -187500.02, 0.00, 0.00, 0.00
236, -185476.36, -187500.02, -187500.02, -187500.02, -186504.64, 187500.00, -187500.02, -187500.02, 0.00, 0.00, 0.00
237, -185852.89, -187500.02, -187500.02, -187500.02, -187001.81, 187500.00, -187500.02, -187500.02, 0.00, 0.00, 0.00
238, -185164.39, -187500.02, -187500.02, -187500.02, -186046.03, 187500.00, -187500.02, -187500.02, 0.00, 0.00, 0.00
239, -184699.09, -187500.02, -187500.02, -187500.02, -185060.39, 187500.00, -187500.02, -187500.02, 0.00, 0.00, 0.00
240, -185296.69, -187500.02, -187500.02, -187500.02, -186074.64, 187500.00, -187500.02, -187500.02, 0.00, 0.00, 0.00
241, -185846.50, -187500.02, -187500.02, -187500.02, -187244.67, 187500.00, -187500.02, -187500.02, 0.00, 0.00, 0.00
242, -185309.45, -187500.02, -187500.02, -187500.02, -186538.17, 187500.00, -187500.02, -187500.02, 0.00, 0.00, 0.00
243, -184746.02, -187500.02, -187500.02, -187500.02, -185671.91, 187500.00, -187500.02, -187500.02, 0.00, 0.00, 0.00
244, -185169.80, -187500.02, -187500.02, -187500.02, -186287.95, 187500.00, -187500.02, -187500.02, 0.00, 0.00, 0.00
245, -185859.84, -187500.02, -187500.02, -187500.02, -187201.91, 187500.00, -187500.02, -187500.02, 0.00, 0.00, 0.00
246, -185473.72, -187500.02, -187500.02, -187500.02, -186689.11, 187500.00, -187500.02, -187500.02, 0.00, 0.00, 0.00
247, -184754.39, -187500.02, -187500.02, -187500.02, -185670.44, 187500.00, -187500.02, -187500.02, 0.00, 0.00, 0.00
248, -185026.59, -187500.02, -187500.02, -187500.02, -186041.83, 187500.00, -187500.02, -187500.02, 0.00, 0.00, 0.00
249, -185808.53, -187500.02, -187500.02, -187500.02, -187070.66, 187500.00, -187500.02, -187500.02, 0.00, 0.00, 0.00
250, -185614.28, -187500.02, -187500.02, -187500.02, -186816.05, 187500.00, -187500.02, -187500.02, 0.00, 0.00, 0.00
251, -184847.56, -187500.02, -187500.02, -187500.02, -185722.00, 187500.00, -187500.02, -187500.02, 0.00, 0.00, 0.00
252, -184927.73, -187500.02, -187500.02, -187500.02, -185825.63, 187500.00, -187500.02, -187500.02, 0.00, 0.00, 0.00
253, -185733.22, -187500.02, -187500.02, -187500.02, -186898.28, 187500.00, -187500.02, -187500.02, 0.00, 0.00, 0.00
254, -185745.56, -187500.02, -187500.02, -187500.02, -186918.38, 187500.00, -187500.02, -187500.02, 0.00, 0.00, 0.00
255, -184953.34, -187500.02, -187500.02, -187500.02, -185824.55, 187500.00, -187500.02, -187500.02, 0.00, 0.00, 0.00
0, -184834.33, -187500.02, -187500.02, -187500.02, -185641.61, 187500.00, -187500.02, -187500.02, 0.00, 0.00, 0.00
1, -185612.45, -187500.02, -187500.02, -187500.02, -186680.56, 187500.00, -187500.02, -187500.02, 0.00, 0.00, 0.00
2, -185835.89, -187500.02, -187500.02, -187500.02, -186977.70, 187500.00, -187500.02, -187500.02, 0.00, 0.00, 0.00
3, -185087.17, -187500.02, -187500.02, -187500.02, -185890.00, 187500.00, -187500.02, -187500.02, 0.00, 0.00, 0.00
