%OpenBCI Raw EEG Data
%
%Sample Rate = 250.0 Hz
%First Column = SampleIndex
%Other Columns = EEG data in microvolts followed by Accel Data (in G) interleaved with Aux Data
0, -17046.74, -15702.97, -14612.36, -16519.30, -19067.51, -17987.34, -138053.59, -102064.34, -0.01, -0.02, 1.07
1, -17045.66, -15702.08, -14611.54, -16518.21, -19068.85, -18001.29, -138055.25, -102066.24, 0.00, 0.00, 0.00
2, -17044.86, -15701.41, -14611.07, -16517.54, -19070.71, -18025.00, -138057.48, -102068.37, 0.00, 0.00, 0.00
3, -17039.49, -15696.53, -14606.33, -16512.51, -19068.38, -18013.40, -138055.36, -102066.20, 0.00, 0.00, 0.00
4, -17036.25, -15693.70, -14603.56, -16509.56, -19068.05, -17990.07, -138055.19, -102065.93, 0.00, 0.00, 0.00
5, -17034.89, -15692.53, -14602.60, -16508.35, -19069.19, -17997.87, -138056.81, -102067.52, 0.00, 0.00, 0.00
6, -17033.32, -15691.08, -14601.25, -16506.90, -19070.11, -18022.75, -138058.11, -102068.95, 0.00, 0.00, 0.00
7, -17027.74, -15685.92, -14596.25, -16501.71, -19067.47, -18017.45, -138055.56, -102066.48, -0.02, -0.02, 1.08
8, -17022.17, -15680.80, -14591.15, -16496.53, -19064.81, -17991.59, -138053.13, -102063.85, 0.00, 0.00, 0.00
9, -17020.96, -15679.77, -14590.23, -16495.47, -19066.17, -17993.60, -138054.81, -102065.52, 0.00, 0.00, 0.00
10, -17023.07, -15681.98, -14592.60, -16497.64, -19070.71, -18022.41, -138059.69, -102070.71, 0.00, 0.00, 0.00
11, -17019.04, -15678.27, -14589.09, -16493.82, -19069.41, -18024.76, -138058.70, -102069.80, 0.00, 0.00, 0.00
12, -17013.39, -15673.07, -14584.04, -16488.57, -19066.73, -17998.25, -138056.27, -102067.16, 0.00, 0.00, 0.00
13, -17011.96, -15672.01, -14583.10, -16487.36, -19068.00, -17993.78, -138057.89, -102068.73, 0.00, 0.00, 0.00
14, -17011.49, -15671.54, -14582.86, -16486.98, -19069.97, -18019.10, -138060.22, -102071.16, 0.00, 0.00, 0.00
15, -17008.04, -15668.13, -14579.68, -16483.61, -19069.14, -18028.47, -138059.70, -102070.63, 0.00, 0.00, 0.00
16, -17002.17, -15662.83, -14574.41, -16478.18, -19066.24, -18004.60, -138057.05, -102067.85, 0.00, 0.00, 0.00
17, -16995.86, -15656.97, -14568.60, -16472.27, -19062.75, -17989.62, -138053.80, -102064.66, -0.02, -0.02, 1.09
18, -16996.36, -15657.58, -14569.43, -16472.95, -19065.79, -18012.76, -138057.16, -102068.19, 0.00, 0.00, 0.00
19, -16992.27, -15653.53, -14565.63, -16468.85, -19064.23, -18026.30, -138055.97, -102067.00, 0.00, 0.00, 0.00
20, -16985.85, -15647.65, -14559.77, -16462.78, -19060.79, -18004.26, -138052.70, -102063.59, 0.00, 0.00, 0.00
21, -16982.01, -15644.21, -14556.48, -16459.29, -19059.82, -17986.40, -138051.91, -102062.84, 0.00, 0.00, 0.00
22, -16982.27, -15644.63, -14557.11, -16459.58, -19062.64, -18005.40, -138055.09, -102066.04, 0.00, 0.00, 0.00
23, -16981.22, -15643.69, -14556.37, -16458.66, -19064.12, -18026.95, -138056.84, -102067.92, 0.00, 0.00, 0.00
24, -16977.51, -15640.36, -14553.13, -16455.38, -19063.22, -18013.43, -138056.34, -102067.27, 0.00, 0.00, 0.00
25, -16972.28, -15635.65, -14548.46, -16450.48, -19061.03, -17990.85, -138054.31, -102065.05, 0.00, 0.00, 0.00
26, -16969.89, -15633.46, -14546.45, -16448.31, -19061.21, -18002.01, -138054.78, -102065.70, 0.00, 0.00, 0.00
27, -16968.53, -15632.16, -14545.44, -16447.04, -19062.26, -18025.77, -138056.19, -102067.18, -0.02, -0.02, 1.09
28, -16964.06, -15628.12, -14541.44, -16442.75, -19060.63, -18016.38, -138054.73, -102065.82, 0.00, 0.00, 0.00
29, -16958.16, -15622.66, -14536.08, -16437.16, -19057.68, -17990.29, -138052.13, -102062.98, 0.00, 0.00, 0.00
30, -16956.79, -15621.61, -14535.14, -16436.06, -19058.97, -17996.64, -138053.83, -102064.63, 0.00, 0.00, 0.00
31, -16959.47, -15624.29, -14538.04, -16438.77, -19063.98, -18026.08, -138059.25, -102070.22, 0.00, 0.00, 0.00
32, -16955.45, -15620.49, -14534.56, -16435.04, -19062.80, -18024.24, -138058.39, -102069.23, 0.00, 0.00, 0.00
33, -16948.05, -15613.68, -14527.72, -16428.06, -19058.50, -17995.99, -138054.14, -102064.90, 0.00, 0.00, 0.00
34, -16943.16, -15609.07, -14523.13, -16423.30, -19056.11, -17992.51, -138052.14, -102062.91, 0.00, 0.00, 0.00
35, -16941.79, -15607.75, -14521.91, -16421.85, -19057.07, -18017.65, -138053.56, -102064.41, 0.00, 0.00, 0.00
36, -16941.73, -15607.80, -14522.20, -16421.94, -19059.62, -18025.00, -138056.42, -102067.29, 0.00, 0.00, 0.00
37, -16935.51, -15602.10, -14516.70, -16416.24, -19056.52, -17998.56, -138053.42, -102064.19, -0.02, -0.01, 1.09
38, -16928.29, -15595.26, -14509.90, -16409.33, -19052.04, -17986.72, -138049.28, -102059.98, 0.00, 0.00, 0.00
39, -16926.35, -15593.34, -14508.27, -16407.41, -19052.49, -18009.74, -138050.11, -102060.90, 0.00, 0.00, 0.00
40, -16924.63, -15591.77, -14506.97, -16405.89, -19053.43, -18022.37, -138051.39, -102062.24, 0.00, 0.00, 0.00
41, -16918.91, -15586.61, -14501.68, -16400.50, -19050.66, -17998.94, -138048.75, -102059.63, 0.00, 0.00, 0.00
42, -16913.18, -15581.36, -14496.51, -16395.16, -19047.89, -17983.10, -138046.31, -102056.97, 0.00, 0.00, 0.00
43, -16913.77, -15581.98, -14497.43, -16395.83, -19050.86, -18005.38, -138049.78, -102060.45, 0.00, 0.00, 0.00
44, -16913.81, -15582.07, -14497.68, -16395.96, -19053.41, -18024.02, -138052.58, -102063.41, 0.00, 0.00, 0.00
45, -16911.64, -15580.46, -14496.18, -16394.15, -19054.32, -18008.04, -138053.64, -102064.34, 0.00, 0.00, 0.00
46, -16905.65, -15574.83, -14490.72, -16388.46, -19051.22, -17987.05, -138050.77, -102061.33, 0.00, 0.00, 0.00
47, -16904.54, -15573.82, -14489.90, -16387.45, -19052.65, -18003.35, -138052.55, -102063.20, -0.02, -0.01, 1.09
48, -16904.71, -15574.14, -14490.43, -16387.79, -19055.31, -18026.99, -138055.72, -102066.45, 0.00, 0.00, 0.00
49, -16899.46, -15569.29, -14485.65, -16382.82, -19052.83, -18013.14, -138053.63, -102064.16, 0.00, 0.00, 0.00
50, -16892.76, -15563.14, -14479.59, -16376.52, -19049.14, -17988.06, -138050.16, -102060.63, 0.00, 0.00, 0.00
51, -16891.71, -15562.22, -14478.77, -16375.65, -19050.68, -17998.65, -138051.86, -102062.55, 0.00, 0.00, 0.00
52, -16892.15, -15562.65, -14479.50, -16376.09, -19053.48, -18024.24, -138055.09, -102065.93, 0.00, 0.00, 0.00
53, -16888.17, -15559.00, -14476.00, -16372.32, -19052.36, -18017.18, -138054.19, -102064.90, 0.00, 0.00, 0.00
54, -16883.03, -15554.40, -14471.50, -16367.56, -19050.28, -17991.61, -138052.27, -102062.87, 0.00, 0.00, 0.00
55, -16880.95, -15552.61, -14469.74, -16365.81, -19050.77, -17995.68, -138053.17, -102063.78, 0.00, 0.00, 0.00
56, -16879.23, -15550.89, -14468.33, -16364.29, -19051.49, -18021.47, -138054.25, -102065.04, 0.00, 0.00, 0.00
57, -16877.40, -15549.30, -14466.92, -16362.50, -19052.34, -18023.15, -138055.36, -102066.16, -0.02, -0.01, 1.08
58, -16873.00, -15545.44, -14463.12, -16358.46, -19050.95, -17997.82, -138054.25, -102064.81, 0.00, 0.00, 0.00
59, -16866.00, -15538.66, -14456.53, -16351.73, -19046.66, -17990.54, -138050.20, -102060.74, 0.00, 0.00, 0.00
60, -16866.31, -15539.09, -14457.04, -16352.13, -19049.34, -18016.49, -138053.17, -102063.90, 0.00, 0.00, 0.00
61, -16865.06, -15538.15, -14456.28, -16351.17, -19050.77, -18024.83, -138054.97, -102065.70, 0.00, 0.00, 0.00
62, -16857.01, -15530.64, -14448.82, -16343.46, -19045.81, -17997.38, -138050.14, -102060.66, 0.00, 0.00, 0.00
63, -16851.92, -15525.88, -14444.23, -16338.61, -19043.53, -17986.31, -138048.09, -102058.55, 0.00, 0.00, 0.00
64, -16851.85, -15525.81, -14444.37, -16338.68, -19045.83, -18011.08, -138050.84, -102061.33, 0.00, 0.00, 0.00
65, -16847.80, -15522.10, -14440.81, -16334.86, -19044.56, -18022.70, -138049.75, -102060.30, 0.00, 0.00, 0.00
66, -16840.50, -15515.26, -14434.11, -16327.95, -19040.31, -17998.52, -138045.63, -102056.05, 0.00, 0.00, 0.00
67, -16835.71, -15510.93, -14429.82, -16323.48, -19038.34, -17981.89, -138043.97, -102054.33, -0.02, -0.01, 1.08
68, -16837.84, -15513.18, -14432.21, -16325.62, -19042.88, -18004.04, -138048.92, -102059.41, 0.00, 0.00, 0.00
69, -16839.20, -15514.55, -14433.86, -16327.01, -19046.68, -18025.59, -138053.16, -102063.65, 0.00, 0.00, 0.00
70, -16832.76, -15508.51, -14427.94, -16320.82, -19043.10, -18006.39, -138049.70, -102060.16, 0.00, 0.00, 0.00
71, -16828.38, -15504.67, -14424.09, -16316.88, -19041.70, -17986.31, -138048.55, -102058.87, 0.00, 0.00, 0.00
72, -16826.10, -15502.48, -14422.24, -16314.85, -19041.94, -18000.80, -138049.27, -102059.56, 0.00, 0.00, 0.00
73, -16828.43, -15504.82, -14424.79, -16317.17, -19046.66, -18027.04, -138054.30, -102064.81, 0.00, 0.00, 0.00
74, -16822.64, -15499.53, -14419.53, -16311.68, -19043.73, -18014.10, -138051.59, -102062.11, 0.00, 0.00, 0.00
75, -16817.18, -15494.56, -14414.64, -16306.63, -19041.34, -17989.51, -138049.27, -102059.65, 0.00, 0.00, 0.00
76, -16814.68, -15492.26, -14412.56, -16304.30, -19041.47, -17997.04, -138049.67, -102060.16, 0.00, 0.00, 0.00
77, -16814.48, -15492.13, -14412.65, -16304.12, -19043.66, -18022.93, -138052.27, -102062.94, -0.02, -0.01, 1.08
78, -16812.18, -15490.21, -14410.82, -16302.00, -19044.07, -18019.46, -138053.00, -102063.59, 0.00, 0.00, 0.00
79, -16805.25, -15483.86, -14404.45, -16295.58, -19040.15, -17992.10, -138049.39, -102059.73, 0.00, 0.00, 0.00
80, -16799.26, -15478.07, -14398.79, -16289.82, -19036.89, -17991.12, -138046.42, -102056.74, 0.00, 0.00, 0.00
81, -16799.37, -15478.22, -14399.19, -16290.00, -19039.44, -18018.21, -138049.39, -102059.89, 0.00, 0.00, 0.00
82, -16796.35, -15475.54, -14396.69, -16287.20, -19039.19, -18020.20, -138049.42, -102059.83, 0.00, 0.00, 0.00
83, -16789.27, -15469.04, -14390.25, -16280.70, -19035.21, -17992.33, -138045.58, -102055.89, 0.00, 0.00, 0.00
84, -16786.29, -15466.20, -14387.71, -16277.86, -19034.88, -17986.87, -138045.47, -102055.85, 0.00, 0.00, 0.00
85, -16787.68, -15467.61, -14389.36, -16279.24, -19038.63, -18013.92, -138049.58, -102060.16, 0.00, 0.00, 0.00
86, -16785.98, -15466.20, -14388.13, -16277.75, -19039.51, -18023.64, -138050.88, -102061.44, 0.00, 0.00, 0.00
87, -16778.40, -15459.18, -14381.13, -16270.64, -19034.92, -17997.27, -138046.56, -102056.88, -0.01, -0.01, 1.08
88, -16771.79, -15452.97, -14374.96, -16264.29, -19031.21, -17983.41, -138043.03, -102053.39, 0.00, 0.00, 0.00
89, -16774.07, -15455.27, -14377.49, -16266.55, -19035.88, -18008.96, -138048.06, -102058.62, 0.00, 0.00, 0.00
90, -16772.93, -15454.33, -14376.80, -16265.57, -19037.27, -18024.65, -138049.78, -102060.45, 0.00, 0.00, 0.00
91, -16766.96, -15448.77, -14371.30, -16259.98, -19034.25, -18002.74, -138046.97, -102057.39, 0.00, 0.00, 0.00
92, -16761.13, -15443.40, -14365.93, -16254.46, -19031.26, -17983.47, -138044.30, -102054.53, 0.00, 0.00, 0.00
93, -16760.63, -15442.91, -14365.73, -16254.05, -19033.20, -18002.21, -138046.56, -102056.99, 0.00, 0.00, 0.00
94, -16758.38, -15440.70, -14363.79, -16251.91, -19033.45, -18021.47, -138047.14, -102057.73, 0.00, 0.00, 0.00
95, -16753.50, -15436.25, -14359.41, -16247.39, -19031.44, -18005.49, -138045.38, -102055.85, 0.00, 0.00, 0.00
96, -16747.31, -15430.62, -14353.89, -16241.54, -19028.31, -17982.92, -138042.30, -102052.79, 0.00, 0.00, 0.00
97, -16747.45, -15430.68, -14354.22, -16241.67, -19030.77, -17997.56, -138045.33, -102055.85, -0.01, -0.01, 1.08
98, -16747.40, -15430.79, -14354.54, -16241.87, -19033.22, -18022.41, -138048.27, -102058.84, 0.00, 0.00, 0.00
99, -16741.90, -15425.77, -14349.57, -16236.69, -19030.61, -18011.19, -138045.86, -102056.34, 0.00, 0.00, 0.00
100, -16734.68, -15419.15, -14342.85, -16229.78, -19026.34, -17984.03, -138041.80, -102052.12, 0.00, 0.00, 0.00
101, -16734.62, -15419.24, -14343.23, -16229.87, -19028.93, -17992.71, -138044.69, -102055.06, 0.00, 0.00, 0.00
102, -16732.43, -15417.00, -14341.35, -16227.72, -19029.18, -18016.98, -138045.28, -102055.83, 0.00, 0.00, 0.00
103, -16728.13, -15413.11, -14337.73, -16223.77, -19027.73, -18013.29, -138044.17, -102054.69, 0.00, 0.00, 0.00
104, -16724.04, -15409.49, -14334.20, -16220.12, -19026.59, -17988.66, -138043.19, -102053.63, 0.00, 0.00, 0.00
105, -16722.70, -15408.55, -14333.30, -16219.07, -19028.04, -17990.00, -138044.86, -102055.29, 0.00, 0.00, 0.00
106, -16722.05, -15408.00, -14332.92, -16218.45, -19029.89, -18016.18, -138047.09, -102057.57, 0.00, 0.00, 0.00
107, -16718.30, -15404.40, -14329.50, -16214.89, -19028.82, -18019.19, -138046.22, -102056.77, -0.01, -0.01, 1.08
108, -16712.62, -15399.26, -14324.43, -16209.62, -19026.14, -17992.84, -138043.78, -102054.15, 0.00, 0.00, 0.00
109, -16707.88, -15394.90, -14320.16, -16205.15, -19024.11, -17984.57, -138042.05, -102052.49, 0.00, 0.00, 0.00
110, -16706.07, -15393.13, -14318.68, -16203.43, -19024.82, -18008.33, -138042.95, -102053.63, 0.00, 0.00, 0.00
111, -16706.43, -15393.56, -14319.47, -16203.94, -19027.84, -18021.76, -138046.25, -102056.97, 0.00, 0.00, 0.00
112, -16701.98, -15389.60, -14315.44, -16199.85, -19026.30, -17999.43, -138045.08, -102055.52, 0.00, 0.00, 0.00
113, -16695.19, -15383.32, -14309.27, -16193.41, -19022.38, -17983.56, -138041.38, -102051.73, 0.00, 0.00, 0.00
114, -16695.72, -15383.90, -14310.17, -16194.08, -19025.40, -18006.34, -138044.75, -102055.29, 0.00, 0.00, 0.00
115, -16694.27, -15382.63, -14309.05, -16192.77, -19026.50, -18023.08, -138046.20, -102056.85, 0.00, 0.00, 0.00
116, -16688.50, -15377.40, -14303.86, -16187.42, -19023.72, -18002.23, -138043.77, -102054.24, 0.00, 0.00, 0.00
117, -16683.03, -15372.28, -14298.99, -16182.44, -19021.20, -17982.67, -138041.50, -102051.94, -0.01, -0.01, 1.08
118, -16679.92, -15369.26, -14296.20, -16179.38, -19020.48, -17997.87, -138041.06, -102051.65, 0.00, 0.00, 0.00
119, -16677.28, -15366.82, -14293.81, -16176.72, -19020.26, -18017.83, -138041.22, -102051.96, 0.00, 0.00, 0.00
120, -16674.04, -15364.05, -14291.08, -16173.79, -19019.95, -18005.18, -138041.17, -102051.87, 0.00, 0.00, 0.00
121, -16668.30, -15358.75, -14285.92, -16168.49, -19017.13, -17981.55, -138038.64, -102049.16, 0.00, 0.00, 0.00
122, -16664.25, -15354.78, -14282.18, -16164.45, -19015.61, -17990.54, -138037.55, -102048.00, 0.00, 0.00, 0.00
123, -16661.59, -15352.21, -14279.84, -16161.96, -19015.52, -18013.09, -138037.81, -102048.47, 0.00, 0.00, 0.00
124, -16658.93, -15349.93, -14277.71, -16159.51, -19015.61, -18005.80, -138038.25, -102048.80, 0.00, 0.00, 0.00
125, -16653.88, -15345.50, -14273.40, -16154.97, -19013.73, -17980.48, -138036.55, -102046.98, 0.00, 0.00, 0.00
126, -16651.54, -15343.49, -14271.50, -16152.87, -19014.00, -17985.42, -138037.13, -102047.76, 0.00, 0.00, 0.00
127, -16651.36, -15343.29, -14271.57, -16152.76, -19016.21, -18012.20, -138039.72, -102050.40, -0.02, -0.01, 1.08
128, -16647.33, -15339.60, -14267.99, -16148.91, -19015.03, -18010.70, -138038.80, -102049.37, 0.00, 0.00, 0.00
129, -16640.56, -15333.27, -14261.80, -16142.52, -19011.32, -17983.10, -138035.19, -102045.70, 0.00, 0.00, 0.00
130, -16638.44, -15331.49, -14260.12, -16140.66, -19011.92, -17982.09, -138036.13, -102046.59, 0.00, 0.00, 0.00
131, -16636.78, -15329.76, -14258.71, -16138.99, -19012.64, -18006.99, -138037.17, -102047.87, 0.00, 0.00, 0.00
132, -16633.97, -15327.13, -14256.32, -16136.37, -19012.51, -18012.13, -138037.23, -102048.05, 0.00, 0.00, 0.00
133, -16627.33, -15321.03, -14250.20, -16130.09, -19008.84, -17985.22, -138033.89, -102044.47, 0.00, 0.00, 0.00
134, -16624.04, -15318.23, -14247.49, -16127.21, -19008.44, -17977.08, -138033.78, -102044.36, 0.00, 0.00, 0.00
135, -16623.37, -15317.63, -14247.14, -16126.58, -19010.27, -18001.22, -138035.89, -102046.66, 0.00, 0.00, 0.00
136, -16621.18, -15315.66, -14245.41, -16124.59, -19010.76, -18013.94, -138036.81, -102047.58, 0.00, 0.00, 0.00
137, -16618.68, -15313.78, -14243.51, -16122.47, -19011.21, -17993.98, -138037.64, -102048.23, -0.02, -0.01, 1.08
138, -16616.67, -15312.11, -14241.91, -16120.77, -19012.08, -17981.13, -138038.64, -102049.14, 0.00, 0.00, 0.00
139, -16617.02, -15312.51, -14242.53, -16121.24, -19014.83, -18002.92, -138041.83, -102052.45, 0.00, 0.00, 0.00
140, -16615.48, -15311.12, -14241.39, -16119.83, -19015.88, -18020.54, -138043.16, -102053.93, 0.00, 0.00, 0.00
141, -16607.12, -15303.21, -14233.68, -16111.87, -19010.52, -17998.72, -138037.94, -102048.65, 0.00, 0.00, 0.00
142, -16601.53, -15298.09, -14228.56, -16106.58, -19007.90, -17978.09, -138035.56, -102046.15, 0.00, 0.00, 0.00
143, -16602.00, -15298.81, -14229.32, -16107.23, -19010.83, -17995.77, -138038.89, -102049.57, 0.00, 0.00, 0.00
144, -16601.04, -15297.85, -14228.72, -16106.38, -19012.28, -18018.70, -138040.80, -102051.55, 0.00, 0.00, 0.00
145, -16594.96, -15292.24, -14223.15, -16100.61, -19009.17, -18004.53, -138038.00, -102048.61, 0.00, 0.00, 0.00
146, -16589.49, -15287.27, -14218.26, -16095.45, -19006.56, -17980.50, -138035.58, -102046.13, 0.00, 0.00, 0.00
147, -16586.60, -15284.59, -14215.84, -16092.72, -19006.22, -17989.18, -138035.58, -102046.23, 0.00, 0.00, 0.00
148, -16587.10, -15285.06, -14216.56, -16093.23, -19009.09, -18015.06, -138038.89, -102049.73, -0.02, -0.00, 1.08
149, -16583.25, -15281.69, -14213.16, -16089.81, -19008.08, -18008.62, -138038.20, -102049.03, 0.00, 0.00, 0.00
150, -16576.79, -15275.72, -14207.24, -16083.69, -19004.71, -17981.69, -138034.94, -102045.59, 0.00, 0.00, 0.00
151, -16572.81, -15271.87, -14203.66, -16079.82, -19003.38, -17983.54, -138033.91, -102044.59, 0.00, 0.00, 0.00
152, -16573.64, -15272.75, -14204.80, -16080.67, -19006.51, -18011.73, -138037.64, -102048.36, 0.00, 0.00, 0.00
153, -16572.21, -15271.74, -14203.97, -16079.51, -19007.92, -18014.21, -138039.39, -102050.10, 0.00, 0.00, 0.00
154, -16566.17, -15266.38, -14198.61, -16073.92, -19005.02, -17987.28, -138036.56, -102047.20, 0.00, 0.00, 0.00
155, -16561.61, -15262.02, -14194.39, -16069.61, -19003.12, -17981.73, -138034.95, -102045.57, 0.00, 0.00, 0.00
156, -16561.79, -15262.33, -14194.83, -16069.83, -19005.67, -18007.62, -138037.94, -102048.70, 0.00, 0.00, 0.00
157, -16561.32, -15262.04, -14194.77, -16069.54, -19007.86, -18016.94, -138040.33, -102051.27, 0.00, 0.00, 0.00
158, -16555.76, -15256.81, -14189.71, -16064.35, -19005.26, -17991.77, -138038.00, -102048.65, -0.01, -0.01, 1.08
159, -16551.11, -15252.49, -14185.53, -16060.02, -19003.36, -17980.75, -138036.45, -102046.98, 0.00, 0.00, 0.00
160, -16549.39, -15250.97, -14184.24, -16058.48, -19004.06, -18003.75, -138037.58, -102048.38, 0.00, 0.00, 0.00
161, -16546.68, -15248.47, -14182.05, -16055.95, -19003.97, -18017.00, -138037.89, -102048.80, 0.00, 0.00, 0.00
162, -16538.77, -15241.07, -14174.72, -16048.42, -18999.12, -17992.53, -138033.27, -102044.02, 0.00, 0.00, 0.00
163, -16533.61, -15236.38, -14170.13, -16043.59, -18996.95, -17975.36, -138031.34, -102041.99, 0.00, 0.00, 0.00
164, -16531.33, -15234.10, -14168.05, -16041.27, -18997.08, -17993.04, -138031.77, -102042.55, 0.00, 0.00, 0.00
165, -16534.46, -15237.36, -14171.59, -16044.51, -19002.71, -18016.62, -138037.75, -102048.74, 0.00, 0.00, 0.00
166, -16530.21, -15233.63, -14167.85, -16040.64, -19001.53, -18000.22, -138036.75, -102047.65, 0.00, 0.00, 0.00
167, -16524.20, -15228.02, -14162.38, -16034.94, -18998.38, -17977.96, -138033.94, -102044.77, 0.00, 0.00, 0.00
168, -16524.62, -15228.62, -14163.12, -16035.57, -19001.33, -17994.29, -138037.31, -102048.16, -0.01, -0.01, 1.08
169, -16524.20, -15228.27, -14163.05, -16035.19, -19003.38, -18018.23, -138039.73, -102050.69, 0.00, 0.00, 0.00
170, -16518.81, -15223.30, -14158.20, -16030.09, -19000.86, -18005.87, -138037.42, -102048.36, 0.00, 0.00, 0.00
171, -16514.63, -15219.66, -14154.62, -16026.38, -18999.70, -17982.20, -138036.59, -102047.27, 0.00, 0.00, 0.00
172, -16512.89, -15218.12, -14153.28, -16024.77, -19000.57, -17989.94, -138037.80, -102048.54, 0.00, 0.00, 0.00
173, -16511.68, -15216.93, -14152.32, -16023.54, -19001.75, -18014.81, -138039.31, -102050.26, 0.00, 0.00, 0.00
174, -16509.11, -15214.70, -14150.17, -16021.17, -19001.91, -18011.30, -138039.77, -102050.55, 0.00, 0.00, 0.00
175, -16502.16, -15208.33, -14143.89, -16014.60, -18998.07, -17983.74, -138036.03, -102046.73, 0.00, 0.00, 0.00
176, -16498.89, -15205.44, -14141.17, -16011.81, -18997.48, -17985.17, -138035.81, -102046.57, 0.00, 0.00, 0.00
177, -16502.27, -15208.82, -14144.72, -16015.23, -19003.25, -18015.42, -138042.06, -102052.88, 0.00, 0.00, 0.00
178, -16497.51, -15204.24, -14140.36, -16010.60, -19001.15, -18016.40, -138040.30, -102051.11, -0.02, -0.01, 1.08
179, -16488.63, -15195.88, -14132.20, -16002.19, -18995.32, -17986.87, -138034.73, -102045.34, 0.00, 0.00, 0.00
180, -16484.57, -15192.10, -14128.51, -15998.35, -18993.93, -17979.88, -138033.53, -102044.12, 0.00, 0.00, 0.00
181, -16485.06, -15192.70, -14129.32, -15998.84, -18996.77, -18005.87, -138036.70, -102047.60, 0.00, 0.00, 0.00
182, -16483.49, -15191.45, -14128.18, -15997.41, -18997.89, -18015.93, -138038.13, -102048.98, 0.00, 0.00, 0.00
183, -16479.07, -15187.36, -14124.29, -15993.28, -18996.37, -17992.62, -138036.92, -102047.51, 0.00, 0.00, 0.00
184, -16474.78, -15183.47, -14120.60, -15989.45, -18995.05, -17980.79, -138035.89, -102046.41, 0.00, 0.00, 0.00
185, -16473.15, -15182.06, -14119.13, -15987.93, -18995.83, -18002.54, -138037.08, -102047.76, 0.00, 0.00, 0.00
186, -16472.07, -15181.08, -14118.37, -15986.88, -18997.19, -18018.59, -138038.83, -102049.61, 0.00, 0.00, 0.00
187, -16467.94, -15177.44, -14114.92, -15983.02, -18996.05, -17998.83, -138037.84, -102048.52, 0.00, 0.00, 0.00
188, -16462.53, -15172.34, -14110.01, -15977.99, -18993.46, -17979.79, -138035.55, -102046.04, -0.02, -0.01, 1.08
189, -16462.46, -15172.41, -14110.30, -15978.10, -18995.90, -17998.88, -138038.36, -102049.05, 0.00, 0.00, 0.00
190, -16461.25, -15171.33, -14109.40, -15976.96, -18997.22, -18019.21, -138040.03, -102050.82, 0.00, 0.00, 0.00
191, -16456.16, -15166.80, -14104.91, -15972.33, -18995.12, -18003.26, -138038.13, -102048.77, 0.00, 0.00, 0.00
192, -16450.15, -15161.28, -14099.41, -15966.74, -18991.99, -17980.57, -138035.39, -102045.73, 0.00, 0.00, 0.00
193, -16447.73, -15159.11, -14097.36, -15964.53, -18992.16, -17992.66, -138035.89, -102046.35, 0.00, 0.00, 0.00
194, -16446.88, -15158.30, -14096.82, -15963.59, -18993.75, -18016.62, -138037.73, -102048.43, 0.00, 0.00, 0.00
195, -16440.91, -15152.74, -14091.43, -15957.89, -18990.64, -18005.18, -138034.95, -102045.55, 0.00, 0.00, 0.00
196, -16433.74, -15146.08, -14084.84, -15951.14, -18986.55, -17977.73, -138031.00, -102041.43, 0.00, 0.00, 0.00
197, -16432.38, -15144.89, -14083.77, -15949.94, -18987.74, -17984.68, -138032.45, -102042.95, 0.00, 0.00, 0.00
198, -16430.83, -15143.33, -14082.47, -15948.42, -18988.57, -18009.81, -138033.78, -102044.38, -0.02, -0.01, 1.08
199, -16428.11, -15141.03, -14080.28, -15946.00, -18988.63, -18008.13, -138034.16, -102044.77, 0.00, 0.00, 0.00
200, -16423.23, -15136.76, -14076.14, -15941.69, -18986.85, -17982.89, -138032.61, -102042.95, 0.00, 0.00, 0.00
201, -16420.13, -15133.85, -14073.35, -15938.63, -18986.40, -17982.11, -138032.34, -102042.70, 0.00, 0.00, 0.00
202, -16421.80, -15135.64, -14075.36, -15940.39, -18990.51, -18010.57, -138036.84, -102047.38, 0.00, 0.00, 0.00
203, -16421.20, -15135.37, -14075.21, -15939.99, -18992.54, -18016.96, -138039.27, -102049.84, 0.00, 0.00, 0.00
204, -16416.04, -15130.68, -14070.62, -15935.14, -18990.24, -17990.85, -138037.27, -102047.71, 0.00, 0.00, 0.00
205, -16408.57, -15123.48, -14063.56, -15927.94, -18985.66, -17979.54, -138032.77, -102043.22, 0.00, 0.00, 0.00
206, -16407.90, -15122.72, -14063.09, -15927.43, -18987.40, -18004.02, -138034.88, -102045.45, 0.00, 0.00, 0.00
207, -16405.13, -15120.06, -14060.66, -15924.63, -18987.07, -18014.43, -138035.00, -102045.63, 0.00, 0.00, 0.00
208, -16399.72, -15115.28, -14055.96, -15919.72, -18984.77, -17991.50, -138032.88, -102043.40, -0.01, -0.01, 1.08
209, -16394.33, -15110.38, -14051.07, -15914.75, -18982.24, -17976.77, -138030.73, -102041.07, 0.00, 0.00, 0.00
210, -16392.32, -15108.37, -14049.37, -15912.85, -18982.60, -17996.93, -138031.42, -102041.97, 0.00, 0.00, 0.00
211, -16391.58, -15107.90, -14049.01, -15912.18, -18984.48, -18014.48, -138033.69, -102044.29, 0.00, 0.00, 0.00
212, -16387.61, -15104.35, -14045.61, -15908.50, -18983.45, -17995.41, -138032.92, -102043.31, 0.00, 0.00, 0.00
213, -16382.35, -15099.45, -14040.90, -15903.62, -18981.08, -17975.56, -138030.73, -102041.05, 0.00, 0.00, 0.00
214, -16380.07, -15097.33, -14038.95, -15901.41, -18981.30, -17991.25, -138031.31, -102041.86, 0.00, 0.00, 0.00
215, -16379.38, -15096.68, -14038.53, -15900.83, -18983.02, -18013.31, -138033.44, -102044.16, 0.00, 0.00, 0.00
216, -16374.26, -15092.01, -14034.06, -15896.05, -18980.86, -17999.21, -138031.42, -102042.15, 0.00, 0.00, 0.00
217, -16369.03, -15087.23, -14029.50, -15891.31, -18978.66, -17976.14, -138029.44, -102040.07, 0.00, 0.00, 0.00
218, -16367.11, -15085.50, -14027.98, -15889.50, -18979.45, -17987.12, -138030.47, -102041.16, -0.02, -0.01, 1.08
219, -16368.94, -15087.52, -14030.17, -15891.40, -18983.72, -18014.48, -138035.14, -102045.97, 0.00, 0.00, 0.00
220, -16363.98, -15082.89, -14025.74, -15886.70, -18981.48, -18005.47, -138033.33, -102044.02, 0.00, 0.00, 0.00
221, -16357.83, -15077.28, -14020.18, -15880.91, -18978.35, -17979.01, -138030.38, -102040.90, 0.00, 0.00, 0.00
222, -16354.35, -15074.06, -14017.09, -15877.70, -18977.57, -17982.40, -138029.95, -102040.36, 0.00, 0.00, 0.00
223, -16355.11, -15074.89, -14018.12, -15878.50, -18980.63, -18010.07, -138033.44, -102044.07, 0.00, 0.00, 0.00
224, -16352.89, -15072.92, -14016.31, -15876.38, -18981.08, -18010.77, -138034.27, -102044.90, 0.00, 0.00, 0.00
225, -16346.32, -15066.84, -14010.41, -15870.27, -18977.66, -17983.45, -138031.06, -102041.50, 0.00, 0.00, 0.00
226, -16342.68, -15063.42, -14007.26, -15866.97, -18976.70, -17980.44, -138030.42, -102040.90, 0.00, 0.00, 0.00
227, -16341.70, -15062.42, -14006.63, -15865.98, -18978.11, -18005.80, -138032.05, -102042.73, 0.00, 0.00, 0.00
228, -16339.46, -15060.54, -14004.82, -15863.90, -18978.62, -18011.79, -138032.80, -102043.47, -0.02, -0.01, 1.08
229, -16334.12, -15055.67, -14000.01, -15859.03, -18976.34, -17986.36, -138030.67, -102041.23, 0.00, 0.00, 0.00
230, -16330.79, -15052.71, -13997.15, -15855.92, -18975.67, -17977.53, -138030.36, -102040.85, 0.00, 0.00, 0.00
231, -16330.47, -15052.49, -13997.11, -15855.63, -18977.77, -18001.94, -138032.83, -102043.45, 0.00, 0.00, 0.00
232, -16327.50, -15049.83, -13994.61, -15852.88, -18977.46, -18014.07, -138032.92, -102043.51, 0.00, 0.00, 0.00
233, -16322.14, -15044.96, -13989.82, -15847.92, -18975.11, -17991.43, -138030.64, -102041.14, 0.00, 0.00, 0.00
234, -16317.60, -15040.82, -13985.82, -15843.72, -18973.41, -17976.05, -138029.27, -102039.55, 0.00, 0.00, 0.00
235, -16316.48, -15039.82, -13985.02, -15842.67, -18974.71, -17996.08, -138030.98, -102041.34, 0.00, 0.00, 0.00
236, -16313.17, -15036.62, -13982.09, -15839.50, -18973.95, -18011.91, -138030.44, -102041.05, 0.00, 0.00, 0.00
237, -16307.25, -15031.15, -13976.77, -15833.95, -18970.93, -17992.80, -138027.81, -102038.26, 0.00, 0.00, 0.00
238, -16301.60, -15026.05, -13971.74, -15828.66, -18968.27, -17971.85, -138025.30, -102035.64, -0.02, -0.01, 1.08
239, -16302.83, -15027.43, -13973.30, -15830.06, -18971.98, -17989.96, -138029.42, -102039.94, 0.00, 0.00, 0.00
240, -16305.31, -15029.89, -13976.01, -15832.48, -18976.85, -18016.00, -138034.63, -102045.34, 0.00, 0.00, 0.00
241, -16301.22, -15026.23, -13972.43, -15828.66, -18975.71, -18003.90, -138033.63, -102044.23, 0.00, 0.00, 0.00
242, -16295.23, -15020.75, -13967.02, -15823.07, -18972.70, -17979.25, -138030.75, -102041.21, 0.00, 0.00, 0.00
243, -16294.49, -15020.21, -13966.71, -15822.60, -18974.46, -17989.67, -138032.95, -102043.45, 0.00, 0.00, 0.00
244, -16295.47, -15021.31, -13967.96, -15823.69, -18977.90, -18016.04, -138036.75, -102047.45, 0.00, 0.00, 0.00
245, -16290.15, -15016.26, -13963.13, -15818.55, -18975.38, -18008.49, -138034.56, -102045.12, 0.00, 0.00, 0.00
246, -16281.48, -15008.15, -13955.00, -15810.26, -18969.68, -17979.36, -138029.02, -102039.45, 0.00, 0.00, 0.00
247, -16280.72, -15007.61, -13954.66, -15809.72, -18971.51, -17984.08, -138031.16, -102041.50, 0.00, 0.00, 0.00
248, -16281.17, -15008.15, -13955.40, -15810.30, -18974.42, -18011.91, -138034.41, -102044.90, -0.02, -0.00, 1.08
249, -16279.51, -15006.78, -13954.26, -15808.94, -18975.54, -18014.61, -138035.83, -102046.33, 0.00, 0.00, 0.00
250, -16272.56, -15000.43, -13948.00, -15802.44, -18971.65, -17986.96, -138032.20, -102042.57, 0.00, 0.00, 0.00
251, -16268.18, -14996.28, -13943.98, -15798.26, -18969.95, -17981.31, -138030.83, -102041.09, 0.00, 0.00, 0.00
252, -16266.21, -14994.38, -13942.26, -15796.31, -18970.33, -18004.91, -138031.61, -102042.13, 0.00, 0.00, 0.00
253, -16265.39, -14993.75, -13941.90, -15795.71, -18972.21, -18014.34, -138033.69, -102044.29, 0.00, 0.00, 0.00
254, -16258.70, -14987.54, -13935.73, -15789.36, -18968.49, -17988.33, -138030.17, -102040.60, 0.00, 0.00, 0.00
255, -16256.33, -14985.55, -13933.99, -15787.33, -18968.96, -17979.34, -138030.89, -102041.27, 0.00, 0.00, 0.00
0, -16256.22, -14985.48, -13934.21, -15787.30, -18971.24, -18003.57, -138033.64, -102044.09, 0.00, 0.00, 0.00
1, -16254.90, -14984.41, -13933.23, -15786.01, -18972.38, -18018.54, -138035.23, -102045.79, 0.00, 0.00, 0.00
2, -16248.89, -14978.89, -13927.75, -15780.35, -18969.30, -17996.10, -138032.39, -102042.82, -0.02, -0.01, 1.08
3, -16241.80, -14972.38, -13921.27, -15773.80, -18965.19, -17976.70, -138028.39, -102038.77, 0.00, 0.00, 0.00
4, -16239.93, -14970.55, -13919.75, -15771.99, -18965.79, -17994.58, -138029.38, -102039.80, 0.00, 0.00, 0.00
5, -16238.54, -14969.10, -13918.74, -15770.59, -18966.82, -18013.90, -138030.73, -102041.27, 0.00, 0.00, 0.00
6, -16232.89, -14963.98, -13913.63, -15765.27, -18964.09, -17996.19, -138028.19, -102038.64, 0.00, 0.00, 0.00
7, -16228.28, -14959.87, -13909.62, -15761.02, -18962.48, -17975.21, -138026.75, -102037.09, 0.00, 0.00, 0.00
8, -16225.98, -14957.70, -13907.70, -15758.83, -18962.71, -17988.84, -138027.36, -102037.81, 0.00, 0.00, 0.00
9, -16226.23, -14958.05, -13908.28, -15759.25, -18965.57, -18013.81, -138030.52, -102041.12, 0.00, 0.00, 0.00
10, -16220.86, -14953.16, -13903.43, -15754.20, -18963.04, -18002.01, -138028.30, -102038.77, 0.00, 0.00, 0.00
11, -16215.54, -14948.33, -13898.74, -15749.28, -18960.67, -17977.22, -138026.20, -102036.52, 0.00, 0.00, 0.00
12, -16214.31, -14947.33, -13897.91, -15748.23, -18961.97, -17985.13, -138027.77, -102038.21, -0.02, -0.01, 1.08
13, -16215.34, -14948.38, -13899.21, -15749.31, -18965.48, -18012.26, -138031.56, -102042.20, 0.00, 0.00, 0.00
14, -16213.40, -14946.79, -13897.80, -15747.72, -18966.35, -18009.89, -138032.80, -102043.40, 0.00, 0.00, 0.00
15, -16206.98, -14940.89, -13892.08, -15741.75, -18962.91, -17982.87, -138029.61, -102040.05, 0.00, 0.00, 0.00
16, -16204.75, -14938.99, -13890.27, -15739.72, -18963.35, -17984.71, -138030.22, -102040.80, 0.00, 0.00, 0.00
17, -16206.11, -14940.31, -13891.85, -15741.04, -18967.00, -18012.64, -138034.20, -102045.03, 0.00, 0.00, 0.00
18, -16203.05, -14937.38, -13889.15, -15738.11, -18966.55, -18015.30, -138034.11, -102044.90, 0.00, 0.00, 0.00
19, -16195.38, -14930.38, -13882.20, -15731.00, -18961.97, -17987.14, -138029.73, -102040.41, 0.00, 0.00, 0.00
20, -16192.25, -14927.59, -13879.49, -15728.12, -18961.61, -17980.77, -138029.59, -102040.23, 0.00, 0.00, 0.00
21, -16191.65, -14926.99, -13879.14, -15727.51, -18963.42, -18005.60, -138031.78, -102042.44, 0.00, 0.00, 0.00
22, -16190.02, -14925.47, -13877.84, -15725.95, -18964.29, -18015.80, -138033.11, -102043.73, -0.01, -0.01, 1.08
23, -16183.53, -14919.59, -13872.07, -15719.96, -18960.83, -17990.72, -138029.86, -102040.38, 0.00, 0.00, 0.00
24, -16177.45, -14914.00, -13866.62, -15714.26, -18957.63, -17976.90, -138026.88, -102037.37, 0.00, 0.00, 0.00
25, -16175.93, -14912.59, -13865.37, -15712.81, -18958.50, -17998.54, -138028.19, -102038.86, 0.00, 0.00, 0.00
26, -16172.18, -14908.97, -13861.97, -15709.14, -18957.30, -18012.20, -138027.34, -102038.08, 0.00, 0.00, 0.00
27, -16167.55, -14904.75, -13857.95, -15704.87, -18955.62, -17992.06, -138025.89, -102036.49, 0.00, 0.00, 0.00
28, -16163.93, -14901.53, -13854.77, -15701.50, -18954.86, -17974.27, -138025.39, -102035.89, 0.00, 0.00, 0.00
29, -16163.22, -14900.92, -13854.42, -15700.92, -18956.60, -17992.42, -138027.41, -102038.10, 0.00, 0.00, 0.00
30, -16164.11, -14901.93, -13855.73, -15702.01, -18960.02, -18015.15, -138031.05, -102042.04, 0.00, 0.00, 0.00
31, -16158.57, -14896.92, -13850.79, -15696.76, -18957.47, -17999.17, -138028.83, -102039.58, 0.00, 0.00, 0.00
32, -16151.17, -14890.06, -13843.93, -15689.74, -18952.96, -17974.74, -138024.56, -102035.20, -0.02, -0.01, 1.08
33, -16149.94, -14888.99, -13843.19, -15688.71, -18954.30, -17987.43, -138026.38, -102037.01, 0.00, 0.00, 0.00
34, -16151.17, -14890.31, -13844.71, -15690.03, -18957.88, -18013.45, -138030.42, -102041.21, 0.00, 0.00, 0.00
35, -16145.74, -14885.28, -13839.84, -15684.91, -18955.33, -18003.10, -138028.08, -102038.88, 0.00, 0.00, 0.00
36, -16138.94, -14878.97, -13833.54, -15678.47, -18951.39, -17975.83, -138024.39, -102035.04, 0.00, 0.00, 0.00
37, -16135.97, -14876.25, -13830.90, -15675.66, -18951.06, -17980.66, -138024.39, -102034.97, 0.00, 0.00, 0.00
38, -16134.99, -14875.38, -13830.39, -15674.88, -18952.58, -18006.19, -138026.23, -102037.07, 0.00, 0.00, 0.00
39, -16131.79, -14872.51, -13827.77, -15671.92, -18952.09, -18004.58, -138026.13, -102036.94, 0.00, 0.00, 0.00
40, -16127.83, -14869.03, -13824.26, -15668.35, -18951.11, -17980.21, -138025.42, -102036.09, 0.00, 0.00, 0.00
41, -16125.13, -14866.52, -13822.00, -15665.87, -18951.08, -17979.72, -138025.70, -102036.54, 0.00, 0.00, 0.00
42, -16122.51, -14863.89, -13819.70, -15663.25, -18950.79, -18003.84, -138025.75, -102036.88, 0.00, 0.00, 0.00
43, -16120.99, -14862.64, -13818.54, -15661.75, -18951.91, -18009.69, -138027.16, -102038.33, -0.02, -0.01, 1.08
44, -16114.27, -14856.56, -13812.51, -15655.50, -18948.22, -17982.38, -138023.78, -102034.73, 0.00, 0.00, 0.00
45, -16111.07, -14853.74, -13809.85, -15652.68, -18947.84, -17974.96, -138023.72, -102034.62, 0.00, 0.00, 0.00
46, -16110.49, -14853.16, -13809.49, -15652.08, -18949.63, -17999.46, -138025.91, -102037.09, 0.00, 0.00, 0.00
47, -16106.93, -14849.65, -13806.36, -15648.75, -18948.62, -18009.54, -138025.39, -102036.80, 0.00, 0.00, 0.00
48, -16098.78, -14842.05, -13798.83, -15640.99, -18943.48, -17984.12, -138020.77, -102032.07, 0.00, 0.00, 0.00
49, -16093.50, -14837.31, -13794.13, -15636.05, -18941.16, -17969.37, -138018.80, -102030.10, 0.00, 0.00, 0.00
50, -16096.18, -14840.10, -13797.04, -15638.78, -18946.25, -17993.89, -138024.25, -102035.76, 0.00, 0.00, 0.00
51, -16097.55, -14841.65, -13798.76, -15640.28, -18950.01, -18013.74, -138028.48, -102040.02, 0.00, 0.00, 0.00
52, -16091.18, -14835.72, -13793.06, -15634.26, -18946.61, -17992.57, -138025.33, -102036.85, 0.00, 0.00, 0.00
53, -16085.68, -14830.65, -13788.14, -15629.05, -18944.09, -17972.50, -138023.02, -102034.46, -0.01, -0.01, 1.09
54, -16086.82, -14831.88, -13789.46, -15630.35, -18947.73, -17991.57, -138027.06, -102038.55, 0.00, 0.00, 0.00
55, -16086.97, -14832.15, -13789.95, -15630.55, -18950.43, -18014.66, -138030.06, -102041.66, 0.00, 0.00, 0.00
56, -16081.66, -14827.30, -13785.28, -15625.59, -18948.00, -18000.64, -138027.92, -102039.47, 0.00, 0.00, 0.00
57, -16077.63, -14823.81, -13781.91, -15621.99, -18946.99, -17978.56, -138027.14, -102038.52, 0.00, 0.00, 0.00
58, -16075.42, -14821.75, -13780.07, -15619.93, -18947.35, -17988.95, -138027.84, -102039.17, 0.00, 0.00, 0.00
59, -16074.39, -14820.86, -13779.38, -15619.04, -18948.69, -18013.40, -138029.66, -102041.27, 0.00, 0.00, 0.00
60, -16070.10, -14817.04, -13775.65, -15615.06, -18947.24, -18005.25, -138028.44, -102040.09, 0.00, 0.00, 0.00
61, -16059.44, -14806.85, -13765.63, -15604.78, -18939.55, -17974.31, -138021.06, -102032.63, 0.00, 0.00, 0.00
62, -16055.44, -14803.05, -13762.06, -15601.00, -18938.16, -17976.81, -138020.14, -102031.64, 0.00, 0.00, 0.00
63, -16054.97, -14802.60, -13761.81, -15600.53, -18940.04, -18003.14, -138022.44, -102034.10, -0.02, -0.01, 1.08
64, -16051.10, -14799.16, -13758.48, -15597.05, -18939.13, -18002.74, -138021.75, -102033.43, 0.00, 0.00, 0.00
65, -16045.40, -14793.97, -13753.41, -15591.73, -18936.44, -17976.14, -138019.25, -102030.66, 0.00, 0.00, 0.00
66, -16043.34, -14792.16, -13751.82, -15589.83, -18937.02, -17974.29, -138020.20, -102031.66, 0.00, 0.00, 0.00
67, -16044.98, -14793.95, -13753.74, -15591.59, -18941.07, -18002.25, -138024.75, -102036.29, 0.00, 0.00, 0.00
68, -16041.82, -14791.02, -13751.06, -15588.58, -18940.51, -18007.71, -138024.50, -102036.18, 0.00, 0.00, 0.00
69, -16036.97, -14786.68, -13746.90, -15584.15, -18938.70, -17982.94, -138022.83, -102034.32, 0.00, 0.00, 0.00
70, -16033.31, -14783.31, -13743.75, -15580.71, -18937.83, -17973.39, -138022.16, -102033.61, 0.00, 0.00, 0.00
71, -16031.52, -14781.57, -13742.21, -15579.03, -18938.50, -17996.10, -138023.16, -102034.68, 0.00, 0.00, 0.00
72, -16031.83, -14782.19, -13742.97, -15579.46, -18941.40, -18011.79, -138026.42, -102038.15, 0.00, 0.00, 0.00
73, -16026.29, -14777.10, -13738.03, -15574.16, -18938.77, -17989.06, -138024.16, -102035.62, -0.02, -0.01, 1.09
74, -16018.82, -14770.01, -13731.15, -15567.07, -18934.14, -17970.56, -138019.89, -102031.33, 0.00, 0.00, 0.00
75, -16017.42, -14768.71, -13729.98, -15565.75, -18935.23, -17990.18, -138021.28, -102032.83, 0.00, 0.00, 0.00
76, -16018.62, -14769.92, -13731.50, -15567.05, -18938.86, -18010.65, -138025.33, -102036.98, 0.00, 0.00, 0.00
77, -16015.78, -14767.60, -13729.38, -15564.61, -18939.06, -17994.72, -138025.69, -102037.30, 0.00, 0.00, 0.00
78, -16011.58, -14763.82, -13725.67, -15560.81, -18937.80, -17974.69, -138024.66, -102036.09, 0.00, 0.00, 0.00
79, -16009.50, -14761.96, -13723.97, -15558.96, -18938.19, -17989.11, -138025.53, -102036.96, 0.00, 0.00, 0.00
80, -16007.22, -14759.68, -13722.09, -15556.70, -18938.19, -18011.01, -138026.02, -102037.61, 0.00, 0.00, 0.00
81, -16002.60, -14755.55, -13718.07, -15552.50, -18936.60, -17998.74, -138024.55, -102036.13, 0.00, 0.00, 0.00
82, -15999.29, -14752.75, -13715.39, -15549.57, -18936.24, -17976.41, -138024.44, -102035.84, 0.00, 0.00, 0.00
83, -15998.35, -14751.88, -13714.81, -15548.70, -18937.80, -17986.40, -138026.42, -102037.86, -0.02, -0.01, 1.08
84, -15998.73, -14752.29, -13715.45, -15549.08, -18940.51, -18012.35, -138029.58, -102040.98, 0.00, 0.00, 0.00
85, -15994.82, -14748.84, -13712.01, -15545.50, -18939.41, -18006.54, -138028.70, -102040.20, 0.00, 0.00, 0.00
86, -15989.21, -14743.75, -13707.03, -15540.32, -18936.87, -17980.10, -138026.28, -102037.59, 0.00, 0.00, 0.00
87, -15985.65, -14740.44, -13703.99, -15536.99, -18936.06, -17981.58, -138025.80, -102037.07, 0.00, 0.00, 0.00
88, -15984.16, -14739.05, -13702.76, -15535.56, -18937.04, -18007.59, -138027.20, -102038.64, 0.00, 0.00, 0.00
89, -15980.63, -14735.86, -13699.74, -15532.25, -18936.20, -18008.93, -138026.69, -102038.10, 0.00, 0.00, 0.00
90, -15975.51, -14731.21, -13695.29, -15527.44, -18934.01, -17983.10, -138024.83, -102036.09, 0.00, 0.00, 0.00
91, -15971.21, -14727.30, -13691.47, -15523.42, -18932.51, -17977.55, -138023.58, -102034.86, 0.00, 0.00, 0.00
92, -15971.68, -14727.83, -13692.21, -15523.89, -18935.30, -18003.46, -138026.84, -102038.23, 0.00, 0.00, 0.00
93, -15969.70, -14725.91, -13690.64, -15522.08, -18935.82, -18012.00, -138027.78, -102039.30, -0.01, -0.01, 1.08
94, -15961.29, -14718.15, -13682.91, -15514.21, -18930.56, -17984.37, -138022.67, -102034.08, 0.00, 0.00, 0.00
95, -15955.88, -14713.04, -13677.97, -15509.07, -18928.02, -17971.79, -138020.36, -102031.69, 0.00, 0.00, 0.00
96, -15953.76, -14711.09, -13676.23, -15507.10, -18928.33, -17993.98, -138021.17, -102032.60, 0.00, 0.00, 0.00
97, -15951.30, -14708.97, -13674.19, -15504.76, -18928.42, -18008.17, -138021.70, -102033.30, 0.00, 0.00, 0.00
98, -15945.20, -14703.29, -13668.65, -15498.97, -18925.31, -17985.60, -138018.83, -102030.48, 0.00, 0.00, 0.00
99, -15938.49, -14697.03, -13662.55, -15492.60, -18921.40, -17966.13, -138015.36, -102026.86, 0.00, 0.00, 0.00
100, -15940.17, -14698.82, -13664.54, -15494.38, -18925.49, -17987.32, -138019.88, -102031.51, 0.00, 0.00, 0.00
101, -15941.13, -14699.98, -13665.81, -15495.50, -18928.93, -18009.20, -138023.67, -102035.42, 0.00, 0.00, 0.00
102, -15937.08, -14696.43, -13662.44, -15491.81, -18927.90, -17993.56, -138022.86, -102034.52, 0.00, 0.00, 0.00
103, -15932.03, -14691.87, -13657.97, -15487.21, -18925.78, -17972.12, -138020.98, -102032.55, -0.01, -0.01, 1.08
104, -15931.00, -14691.00, -13657.32, -15486.27, -18927.21, -17986.78, -138022.86, -102034.57, 0.00, 0.00, 0.00
105, -15930.20, -14690.33, -13656.83, -15485.60, -18928.87, -18010.61, -138025.02, -102036.67, 0.00, 0.00, 0.00
106, -15924.28, -14684.78, -13651.48, -15480.04, -18925.80, -17998.59, -138022.23, -102033.90, 0.00, 0.00, 0.00
107, -15916.97, -14677.99, -13644.78, -15473.06, -18921.51, -17971.83, -138018.03, -102029.67, 0.00, 0.00, 0.00
108, -15915.40, -14676.60, -13643.59, -15471.70, -18922.52, -17979.14, -138019.42, -102031.02, 0.00, 0.00, 0.00
109, -15916.07, -14677.25, -13644.58, -15472.39, -18925.49, -18006.12, -138022.83, -102034.57, 0.00, 0.00, 0.00
110, -15913.93, -14675.51, -13643.10, -15470.56, -18926.32, -18003.88, -138023.84, -102035.53, 0.00, 0.00, 0.00
111, -15906.86, -14668.98, -13636.60, -15463.79, -18922.18, -17976.14, -138019.95, -102031.55, 0.00, 0.00, 0.00
112, -15902.51, -14664.89, -13632.64, -15459.63, -18920.44, -17975.52, -138018.48, -102030.05, 0.00, 0.00, 0.00
113, -15901.19, -14663.66, -13631.57, -15458.33, -18921.49, -18000.98, -138019.95, -102031.59, -0.01, -0.01, 1.08
114, -15898.71, -14661.42, -13629.67, -15456.14, -18921.78, -18004.64, -138020.52, -102032.20, 0.00, 0.00, 0.00
115, -15893.81, -14657.11, -13625.49, -15451.76, -18920.01, -17979.09, -138019.00, -102030.39, 0.00, 0.00, 0.00
116, -15891.46, -14655.01, -13623.52, -15449.57, -18920.33, -17973.39, -138019.61, -102030.93, 0.00, 0.00, 0.00
117, -15890.66, -14654.34, -13622.99, -15448.83, -18921.82, -17998.09, -138021.48, -102033.07, 0.00, 0.00, 0.00
118, -15887.71, -14651.70, -13620.57, -15446.04, -18921.51, -18007.55, -138021.48, -102033.09, 0.00, 0.00, 0.00
119, -15881.96, -14646.36, -13615.45, -15440.65, -18918.78, -17983.23, -138019.05, -102030.39, 0.00, 0.00, 0.00
120, -15876.96, -14641.71, -13610.96, -15436.05, -18916.71, -17970.09, -138017.17, -102028.42, 0.00, 0.00, 0.00
121, -15875.75, -14640.64, -13610.00, -15434.82, -18917.94, -17991.86, -138018.73, -102030.28, 0.00, 0.00, 0.00
122, -15875.53, -14640.59, -13610.16, -15434.64, -18920.13, -18009.16, -138021.39, -102033.09, 0.00, 0.00, 0.00
123, -15870.21, -14635.74, -13605.57, -15429.72, -18917.78, -17988.42, -138019.42, -102030.93, -0.01, -0.01, 1.08
124, -15863.61, -14629.60, -13599.43, -15423.49, -18913.98, -17967.65, -138015.89, -102027.30, 0.00, 0.00, 0.00
125, -15863.68, -14629.89, -13599.85, -15423.64, -18916.64, -17986.38, -138018.83, -102030.37, 0.00, 0.00, 0.00
126, -15863.10, -14629.33, -13599.61, -15423.06, -18918.49, -18007.64, -138021.03, -102032.70, 0.00, 0.00, 0.00
127, -15858.61, -14625.35, -13595.76, -15418.88, -18916.84, -17992.75, -138019.67, -102031.27, 0.00, 0.00, 0.00
128, -15852.39, -14619.63, -13590.13, -15413.14, -18913.67, -17969.44, -138016.72, -102028.05, 0.00, 0.00, 0.00
129, -15852.01, -14619.43, -13590.13, -15413.00, -18915.86, -17982.78, -138019.33, -102030.68, 0.00, 0.00, 0.00
130, -15852.59, -14620.10, -13591.00, -15413.58, -18918.87, -18008.35, -138022.70, -102034.19, 0.00, 0.00, 0.00
131, -15849.58, -14617.50, -13588.56, -15410.83, -18918.72, -18000.35, -138022.78, -102034.30, 0.00, 0.00, 0.00
132, -15841.33, -14609.77, -13581.03, -15402.94, -18913.46, -17971.58, -138017.70, -102029.02, 0.00, 0.00, 0.00
133, -15837.80, -14606.46, -13577.99, -15399.70, -18912.59, -17975.85, -138017.13, -102028.49, -0.01, -0.01, 1.07
134, -15841.15, -14609.75, -13581.63, -15403.06, -18918.27, -18005.74, -138023.20, -102034.70, 0.00, 0.00, 0.00
135, -15838.45, -14607.45, -13579.47, -15400.60, -18918.29, -18004.80, -138023.58, -102035.02, 0.00, 0.00, 0.00
136, -15830.78, -14600.36, -13572.40, -15393.42, -18913.71, -17976.70, -138019.22, -102030.41, 0.00, 0.00, 0.00
137, -15825.35, -14595.29, -13567.46, -15388.33, -18911.01, -17973.06, -138016.86, -102027.98, 0.00, 0.00, 0.00
138, -15822.78, -14592.72, -13565.14, -15385.62, -18910.58, -17997.09, -138016.97, -102028.27, 0.00, 0.00, 0.00
139, -15821.21, -14591.31, -13564.00, -15384.17, -18911.61, -18002.88, -138018.27, -102029.66, 0.00, 0.00, 0.00
140, -15815.69, -14586.28, -13559.04, -15379.05, -18909.11, -17976.57, -138015.95, -102027.20, 0.00, 0.00, 0.00
141, -15811.31, -14582.41, -13555.35, -15375.03, -18907.52, -17967.79, -138014.70, -102025.90, 0.00, 0.00, 0.00
142, -15812.50, -14583.60, -13556.80, -15376.37, -18911.16, -17993.87, -138018.67, -102030.10, 0.00, 0.00, 0.00
143, -15811.00, -14582.30, -13555.71, -15374.96, -18912.28, -18006.27, -138019.94, -102031.53, -0.02, -0.02, 1.08
144, -15805.07, -14576.98, -13550.50, -15369.44, -18909.40, -17983.07, -138017.28, -102028.69, 0.00, 0.00, 0.00
145, -15799.06, -14571.24, -13544.87, -15363.58, -18906.16, -17967.05, -138014.28, -102025.65, 0.00, 0.00, 0.00
146, -15799.75, -14571.91, -13545.89, -15364.39, -18909.22, -17989.64, -138017.80, -102029.25, 0.00, 0.00, 0.00
147, -15798.97, -14571.26, -13545.49, -15363.74, -18910.92, -18007.55, -138019.88, -102031.42, 0.00, 0.00, 0.00
148, -15792.78, -14565.60, -13539.95, -15357.91, -18907.79, -17986.76, -138016.86, -102028.31, 0.00, 0.00, 0.00
149, -15786.17, -14559.57, -13533.98, -15351.76, -18904.14, -17965.30, -138013.48, -102024.78, 0.00, 0.00, 0.00
150, -15784.53, -14558.07, -13532.66, -15350.22, -18904.86, -17981.35, -138014.73, -102026.01, 0.00, 0.00, 0.00
151, -15784.98, -14558.52, -13533.35, -15350.66, -18907.81, -18004.91, -138017.91, -102029.34, 0.00, 0.00, 0.00
152, -15779.48, -14553.42, -13528.59, -15345.57, -18905.26, -17990.96, -138015.63, -102026.95, 0.00, 0.00, 0.00
153, -15772.60, -14547.16, -13522.34, -15339.13, -18901.35, -17966.06, -138012.00, -102023.15, -0.01, -0.02, 1.08
154, -15771.99, -14546.78, -13522.09, -15338.59, -18903.32, -17977.71, -138014.31, -102025.59, 0.00, 0.00, 0.00
155, -15772.78, -14547.54, -13523.16, -15339.38, -18906.47, -18003.97, -138017.81, -102029.20, 0.00, 0.00, 0.00
156, -15769.20, -14544.41, -13520.21, -15336.18, -18905.73, -17996.66, -138017.38, -102028.71, 0.00, 0.00, 0.00
157, -15765.69, -14541.51, -13517.31, -15333.14, -18905.22, -17972.39, -138017.08, -102028.27, 0.00, 0.00, 0.00
158, -15761.56, -14537.62, -13513.62, -15329.21, -18903.65, -17974.27, -138015.84, -102027.13, 0.00, 0.00, 0.00
159, -15758.34, -14534.47, -13510.69, -15325.96, -18902.78, -17998.05, -138015.41, -102026.86, 0.00, 0.00, 0.00
160, -15752.24, -14528.68, -13505.08, -15320.20, -18899.52, -17995.63, -138012.41, -102023.73, 0.00, 0.00, 0.00
161, -15747.18, -14524.14, -13500.65, -15315.57, -18897.53, -17969.62, -138010.55, -102021.78, 0.00, 0.00, 0.00
162, -15746.29, -14523.54, -13500.21, -15314.83, -18899.32, -17968.81, -138012.61, -102023.75, 0.00, 0.00, 0.00
163, -15745.57, -14522.96, -13499.83, -15314.21, -18901.08, -17994.27, -138014.73, -102025.96, -0.01, -0.01, 1.07
164, -15743.23, -14520.83, -13497.97, -15312.04, -18901.44, -18000.73, -138015.31, -102026.61, 0.00, 0.00, 0.00
165, -15737.50, -14515.58, -13492.94, -15306.70, -18898.67, -17975.14, -138012.77, -102023.95, 0.00, 0.00, 0.00
166, -15735.27, -14513.72, -13491.18, -15304.78, -18899.23, -17966.85, -138013.59, -102024.76, 0.00, 0.00, 0.00
167, -15735.00, -14513.55, -13491.22, -15304.55, -18901.35, -17991.16, -138016.14, -102027.48, 0.00, 0.00, 0.00
168, -15734.53, -14513.34, -13491.18, -15304.17, -18903.45, -18006.41, -138018.59, -102030.08, 0.00, 0.00, 0.00
169, -15726.24, -14505.59, -13483.53, -15296.35, -18898.13, -17981.24, -138013.44, -102024.83, 0.00, 0.00, 0.00
170, -15720.81, -14500.56, -13478.66, -15291.25, -18895.65, -17964.50, -138011.05, -102022.37, 0.00, 0.00, 0.00
171, -15720.96, -14500.67, -13479.11, -15291.52, -18898.20, -17985.53, -138014.11, -102025.48, 0.00, 0.00, 0.00
172, -15718.93, -14498.86, -13477.43, -15289.58, -18898.76, -18003.19, -138015.00, -102026.45, 0.00, 0.00, 0.00
173, -15713.03, -14493.54, -13472.22, -15284.03, -18895.87, -17984.17, -138012.20, -102023.69, -0.02, -0.01, 1.08
174, -15709.79, -14490.79, -13469.58, -15281.15, -18895.45, -17964.97, -138012.09, -102023.44, 0.00, 0.00, 0.00
175, -15708.60, -14489.70, -13468.74, -15280.10, -18896.77, -17980.23, -138013.84, -102025.25, 0.00, 0.00, 0.00
176, -15709.68, -14490.88, -13470.14, -15281.31, -18900.32, -18005.69, -138017.80, -102029.36, 0.00, 0.00, 0.00
177, -15704.13, -14485.74, -13465.16, -15275.92, -18897.59, -17992.57, -138015.25, -102026.75, 0.00, 0.00, 0.00
178, -15697.70, -14479.82, -13459.39, -15269.97, -18894.20, -17967.03, -138011.88, -102023.39, 0.00, 0.00, 0.00
179, -15695.93, -14478.30, -13457.92, -15268.36, -18894.94, -17975.88, -138012.94, -102024.45, 0.00, 0.00, 0.00
180, -15695.60, -14478.10, -13457.92, -15268.05, -18896.97, -18001.36, -138015.45, -102027.08, 0.00, 0.00, 0.00
181, -15694.52, -14477.38, -13457.47, -15267.22, -18898.73, -17998.54, -138017.45, -102029.05, 0.00, 0.00, 0.00
182, -15688.53, -14471.84, -13452.20, -15261.73, -18895.83, -17971.67, -138014.75, -102026.12, 0.00, 0.00, 0.00
183, -15684.02, -14467.59, -13448.11, -15257.41, -18893.91, -17971.83, -138013.03, -102024.49, -0.02, -0.01, 1.07
184, -15684.69, -14468.48, -13449.13, -15258.17, -18896.99, -17999.95, -138016.58, -102028.09, 0.00, 0.00, 0.00
185, -15682.72, -14466.85, -13447.68, -15256.41, -18897.73, -18003.08, -138017.64, -102029.14, 0.00, 0.00, 0.00
186, -15675.81, -14460.57, -13441.49, -15250.13, -18893.88, -17975.54, -138014.02, -102025.45, 0.00, 0.00, 0.00
187, -15673.42, -14458.49, -13439.57, -15248.00, -18894.20, -17971.38, -138014.58, -102025.98, 0.00, 0.00, 0.00
188, -15675.10, -14460.17, -13441.58, -15249.57, -18898.31, -17998.38, -138018.98, -102030.50, 0.00, 0.00, 0.00
189, -15674.92, -14460.15, -13441.71, -15249.46, -18900.63, -18008.84, -138021.66, -102033.16, 0.00, 0.00, 0.00
190, -15670.34, -14456.17, -13437.82, -15245.32, -18899.16, -17985.04, -138020.25, -102031.73, 0.00, 0.00, 0.00
191, -15664.77, -14450.94, -13432.79, -15240.09, -18896.41, -17972.21, -138017.69, -102029.16, 0.00, 0.00, 0.00
192, -15662.65, -14448.99, -13431.10, -15238.12, -18896.77, -17994.29, -138018.42, -102029.98, 0.00, 0.00, 0.00
193, -15661.40, -14448.01, -13430.31, -15237.05, -18898.00, -18009.72, -138020.03, -102031.71, -0.01, -0.01, 1.08
194, -15655.38, -14442.45, -13424.93, -15231.39, -18894.87, -17987.61, -138017.09, -102028.65, 0.00, 0.00, 0.00
195, -15649.57, -14437.10, -13419.70, -15225.92, -18891.89, -17969.10, -138014.34, -102025.80, 0.00, 0.00, 0.00
196, -15646.80, -14434.42, -13417.24, -15223.21, -18891.63, -17985.78, -138014.44, -102026.03, 0.00, 0.00, 0.00
197, -15646.20, -14433.84, -13417.13, -15222.70, -18893.57, -18006.16, -138016.67, -102028.45, 0.00, 0.00, 0.00
198, -15641.86, -14430.00, -13413.33, -15218.63, -18892.05, -17990.20, -138015.47, -102027.13, 0.00, 0.00, 0.00
199, -15637.10, -14425.73, -13409.12, -15214.21, -18890.22, -17968.88, -138013.75, -102025.34, 0.00, 0.00, 0.00
200, -15637.08, -14425.84, -13409.46, -15214.30, -18892.63, -17984.30, -138016.47, -102028.24, 0.00, 0.00, 0.00
201, -15637.12, -14425.95, -13409.86, -15214.43, -18895.20, -18009.22, -138019.48, -102031.27, 0.00, 0.00, 0.00
202, -15630.89, -14420.16, -13404.30, -15208.66, -18891.96, -17997.04, -138016.52, -102028.13, 0.00, 0.00, 0.00
203, -15624.85, -14414.62, -13398.91, -15203.01, -18888.81, -17971.21, -138013.61, -102025.05, 0.00, 0.00, 0.00
204, -15623.58, -14413.68, -13398.13, -15201.93, -18890.17, -17978.60, -138015.22, -102026.86, -0.02, -0.02, 1.08
205, -15624.36, -14414.44, -13399.22, -15202.63, -18893.21, -18005.58, -138018.70, -102030.57, 0.00, 0.00, 0.00
206, -15622.24, -14412.61, -13397.55, -15200.57, -18893.79, -18003.37, -138019.58, -102031.51, 0.00, 0.00, 0.00
207, -15619.09, -14409.99, -13395.04, -15197.89, -18893.62, -17979.34, -138019.67, -102031.55, 0.00, 0.00, 0.00
208, -15612.38, -14403.53, -13388.74, -15191.52, -18889.59, -17976.08, -138015.98, -102027.98, 0.00, 0.00, 0.00
209, -15609.52, -14400.69, -13386.26, -15188.77, -18889.12, -18000.13, -138016.08, -102028.11, 0.00, 0.00, 0.00
210, -15609.88, -14401.34, -13387.15, -15189.35, -18892.14, -18006.81, -138019.41, -102031.62, 0.00, 0.00, 0.00
211, -15602.99, -14395.08, -13380.85, -15182.85, -18888.16, -17979.21, -138015.67, -102027.75, 0.00, 0.00, 0.00
212, -15597.70, -14390.08, -13376.09, -15177.77, -18885.64, -17970.09, -138013.28, -102025.31, 0.00, 0.00, 0.00
213, -15596.51, -14388.91, -13375.17, -15176.63, -18886.78, -17994.45, -138014.73, -102026.92, 0.00, 0.00, 0.00
214, -15594.30, -14386.92, -13373.38, -15174.55, -18887.09, -18004.69, -138015.52, -102027.73, -0.01, -0.03, 1.09
215, -15588.62, -14381.80, -13368.49, -15169.32, -18884.47, -17980.66, -138013.09, -102025.25, 0.00, 0.00, 0.00
216, -15585.13, -14378.76, -13365.49, -15166.19, -18883.80, -17968.88, -138012.66, -102024.80, 0.00, 0.00, 0.00
217, -15582.76, -14376.51, -13363.44, -15164.00, -18883.78, -17989.44, -138013.05, -102025.36, 0.00, 0.00, 0.00
218, -15584.02, -14377.92, -13365.14, -15165.37, -18887.58, -18008.46, -138017.17, -102029.67, 0.00, 0.00, 0.00
219, -15579.86, -14374.25, -13361.65, -15161.54, -18886.40, -17989.22, -138016.25, -102028.69, 0.00, 0.00, 0.00
220, -15572.86, -14367.72, -13355.19, -15154.77, -18882.19, -17967.83, -138012.27, -102024.60, 0.00, 0.00, 0.00
221, -15571.63, -14366.45, -13354.25, -15153.54, -18883.40, -17984.82, -138013.81, -102026.23, 0.00, 0.00, 0.00
222, -15568.46, -14363.34, -13351.43, -15150.46, -18882.75, -18003.81, -138013.55, -102025.96, 0.00, 0.00, 0.00
223, -15562.31, -14357.80, -13346.00, -15144.67, -18879.54, -17987.77, -138010.63, -102022.90, 0.00, 0.00, 0.00
224, -15555.65, -14351.65, -13339.90, -15138.52, -18875.87, -17964.05, -138007.09, -102019.44, -0.01, -0.02, 1.08
225, -15554.44, -14350.65, -13338.98, -15137.47, -18877.19, -17976.43, -138008.73, -102021.25, 0.00, 0.00, 0.00
226, -15553.80, -14350.11, -13338.72, -15136.85, -18878.95, -18001.22, -138010.89, -102023.55, 0.00, 0.00, 0.00
227, -15547.45, -14344.08, -13332.90, -15130.70, -18875.44, -17990.29, -138007.58, -102020.20, 0.00, 0.00, 0.00
228, -15542.37, -14339.52, -13328.43, -15126.01, -18873.30, -17964.43, -138005.64, -102018.09, 0.00, 0.00, 0.00
229, -15540.41, -14337.77, -13326.91, -15124.35, -18873.90, -17970.04, -138006.61, -102019.08, 0.00, 0.00, 0.00
230, -15537.99, -14335.40, -13324.95, -15121.98, -18873.86, -17994.32, -138006.97, -102019.75, 0.00, 0.00, 0.00
231, -15533.88, -14331.63, -13321.35, -15118.00, -18872.56, -17992.06, -138005.88, -102018.59, 0.00, 0.00, 0.00
232, -15529.37, -14327.80, -13317.59, -15114.07, -18871.06, -17967.03, -138004.66, -102017.25, 0.00, 0.00, 0.00
233, -15525.83, -14324.63, -13314.46, -15110.76, -18870.33, -17964.97, -138004.14, -102016.66, 0.00, 0.00, 0.00
234, -15525.39, -14324.20, -13314.40, -15110.45, -18872.20, -17991.07, -138006.45, -102019.17, -0.01, -0.01, 1.08
235, -15522.17, -14321.28, -13311.63, -15107.34, -18871.53, -17995.52, -138006.19, -102018.95, 0.00, 0.00, 0.00
236, -15516.76, -14316.38, -13306.93, -15102.27, -18869.21, -17969.30, -138004.05, -102016.63, 0.00, 0.00, 0.00
237, -15514.30, -14314.33, -13304.96, -15100.12, -18869.50, -17961.91, -138004.58, -102017.09, 0.00, 0.00, 0.00
238, -15514.97, -14315.00, -13305.95, -15100.77, -18872.52, -17987.68, -138008.03, -102020.78, 0.00, 0.00, 0.00
239, -15513.83, -14314.01, -13305.30, -15099.85, -18873.97, -18000.78, -138009.80, -102022.66, 0.00, 0.00, 0.00
240, -15510.03, -14310.79, -13302.13, -15096.57, -18873.21, -17979.52, -138009.25, -102021.98, 0.00, 0.00, 0.00
241, -15503.91, -14305.09, -13296.56, -15090.85, -18869.95, -17963.22, -138006.23, -102018.95, 0.00, 0.00, 0.00
242, -15502.97, -14304.20, -13296.07, -15090.02, -18871.53, -17983.88, -138008.03, -102020.98, 0.00, 0.00, 0.00
243, -15503.33, -14304.65, -13296.76, -15090.42, -18874.26, -18003.23, -138011.22, -102024.13, 0.00, 0.00, 0.00
244, -15496.53, -14298.50, -13290.66, -15084.03, -18870.44, -17982.11, -138007.59, -102020.42, -0.01, -0.01, 1.08
245, -15491.03, -14293.58, -13285.90, -15079.04, -18868.00, -17961.50, -138005.31, -102018.03, 0.00, 0.00, 0.00
246, -15491.57, -14294.19, -13286.73, -15079.58, -18870.84, -17979.41, -138008.63, -102021.59, 0.00, 0.00, 0.00
247, -15491.01, -14293.65, -13286.46, -15079.00, -18872.61, -18002.16, -138010.86, -102023.91, 0.00, 0.00, 0.00
248, -15485.36, -14288.42, -13281.43, -15073.73, -18869.83, -17988.30, -138008.31, -102021.38, 0.00, 0.00, 0.00
249, -15479.05, -14282.63, -13275.80, -15067.87, -18866.57, -17963.89, -138005.16, -102018.16, 0.00, 0.00, 0.00
250, -15477.22, -14280.95, -13274.30, -15066.06, -18867.17, -17973.78, -138006.19, -102019.15, 0.00, 0.00, 0.00
251, -15477.17, -14281.02, -13274.66, -15066.06, -18869.65, -17999.12, -138009.08, -102022.12, 0.00, 0.00, 0.00
252, -15472.73, -14277.04, -13270.77, -15061.90, -18868.04, -17991.39, -138007.58, -102020.66, 0.00, 0.00, 0.00
253, -15467.16, -14272.01, -13265.83, -15056.72, -18865.50, -17965.35, -138005.13, -102018.25, 0.00, 0.00, 0.00
254, -15465.19, -14270.31, -13264.31, -15054.88, -18866.08, -17969.26, -138006.14, -102019.23, -0.01, -0.01, 1.09
255, -15465.64, -14270.90, -13265.20, -15055.49, -18868.92, -17996.64, -138009.39, -102022.68, 0.00, 0.00, 0.00
0, -15464.75, -14270.31, -13264.91, -15054.91, -18870.84, -17999.75, -138011.53, -102024.83, 0.00, 0.00, 0.00
1, -15460.14, -14266.27, -13260.91, -15050.68, -18869.25, -17974.29, -138010.06, -102023.23, 0.00, 0.00, 0.00
2, -15457.71, -14264.32, -13259.03, -15048.54, -18869.54, -17971.45, -138010.69, -102023.87, 0.00, 0.00, 0.00
3, -15457.59, -14264.28, -13259.26, -15048.45, -18871.82, -17997.45, -138013.41, -102026.79, 0.00, 0.00, 0.00
4, -15452.30, -14259.05, -13254.34, -15043.26, -18869.05, -18001.42, -138010.94, -102024.45, 0.00, 0.00, 0.00
5, -15443.76, -14251.05, -13246.45, -15035.15, -18863.42, -17973.08, -138005.45, -102018.88, 0.00, 0.00, 0.00
6, -15442.06, -14249.77, -13245.42, -15033.74, -18864.58, -17965.13, -138006.91, -102020.20, 0.00, 0.00, 0.00
7, -15441.41, -14249.33, -13245.17, -15033.16, -18866.32, -17988.59, -138009.03, -102022.63, 0.00, 0.00, 0.00
8, -15439.27, -14247.36, -13243.34, -15031.15, -18866.79, -18002.32, -138009.86, -102023.48, -0.01, -0.01, 1.08
9, -15434.08, -14242.69, -13238.80, -15026.27, -18864.56, -17980.30, -138007.91, -102021.45, 0.00, 0.00, 0.00
10, -15429.99, -14239.09, -13235.32, -15022.52, -18863.42, -17964.30, -138006.91, -102020.38, 0.00, 0.00, 0.00
11, -15426.79, -14235.96, -13232.50, -15019.54, -18862.55, -17982.02, -138006.44, -102020.16, 0.00, 0.00, 0.00
12, -15426.35, -14235.58, -13232.41, -15019.10, -18864.56, -18001.51, -138008.81, -102022.61, 0.00, 0.00, 0.00
13, -15423.91, -14233.66, -13230.60, -15016.95, -18865.07, -17986.36, -138009.41, -102023.17, 0.00, 0.00, 0.00
14, -15418.37, -14228.58, -13225.66, -15011.90, -18862.46, -17964.68, -138007.09, -102020.63, 0.00, 0.00, 0.00
15, -15414.61, -14225.03, -13222.26, -15008.28, -18861.16, -17976.97, -138006.17, -102019.77, 0.00, 0.00, 0.00
16, -15414.12, -14224.63, -13222.11, -15007.90, -18863.13, -18000.91, -138008.56, -102022.32, 0.00, 0.00, 0.00
17, -15410.81, -14221.79, -13219.51, -15004.90, -18862.75, -17990.38, -138008.47, -102022.23, 0.00, 0.00, 0.00
18, -15402.16, -14213.63, -13211.42, -14996.59, -18857.09, -17962.55, -138002.92, -102016.64, -0.01, -0.00, 1.09
19, -15400.82, -14212.56, -13210.57, -14995.43, -18858.32, -17971.41, -138004.52, -102018.32, 0.00, 0.00, 0.00
20, -15402.32, -14214.10, -13212.47, -14996.95, -18862.17, -17998.59, -138008.70, -102022.73, 0.00, 0.00, 0.00
21, -15399.01, -14211.17, -13209.68, -14993.86, -18861.59, -17993.87, -138008.42, -102022.50, 0.00, 0.00, 0.00
22, -15393.00, -14205.74, -13204.43, -14988.34, -18858.63, -17966.91, -138005.67, -102019.62, 0.00, 0.00, 0.00
23, -15388.91, -14201.87, -13200.81, -14984.47, -18857.18, -17967.16, -138004.56, -102018.56, 0.00, 0.00, 0.00
24, -15390.00, -14202.95, -13202.21, -14985.57, -18860.65, -17995.50, -138008.41, -102022.61, 0.00, 0.00, 0.00
25, -15387.50, -14200.71, -13200.09, -14983.18, -18860.76, -17998.14, -138008.81, -102023.04, 0.00, 0.00, 0.00
26, -15380.06, -14193.92, -13193.36, -14976.21, -18856.31, -17969.93, -138004.52, -102018.63, 0.00, 0.00, 0.00
27, -15375.81, -14189.98, -13189.74, -14972.18, -18854.75, -17963.56, -138003.27, -102017.47, 0.00, 0.00, 0.00
28, -15376.57, -14190.76, -13190.81, -14972.96, -18857.90, -17989.51, -138006.81, -102021.20, -0.01, -0.01, 1.09
29, -15374.33, -14188.78, -13189.03, -14970.86, -18858.19, -17998.52, -138007.52, -102021.98, 0.00, 0.00, 0.00
30, -15368.81, -14183.77, -13184.11, -14965.68, -18855.62, -17973.95, -138005.14, -102019.57, 0.00, 0.00, 0.00
31, -15365.59, -14181.04, -13181.47, -14962.86, -18855.30, -17963.11, -138005.16, -102019.39, 0.00, 0.00, 0.00
32, -15361.66, -14177.24, -13177.85, -14959.06, -18853.72, -17983.07, -138004.00, -102018.43, 0.00, 0.00, 0.00
33, -15361.28, -14176.95, -13177.85, -14958.88, -18855.73, -17999.61, -138006.28, -102020.94, 0.00, 0.00, 0.00
34, -15353.95, -14170.04, -13171.26, -14951.84, -18851.42, -17976.55, -138002.22, -102016.66, 0.00, 0.00, 0.00
35, -15351.02, -14167.59, -13168.95, -14949.23, -18851.42, -17960.45, -138002.50, -102016.87, 0.00, 0.00, 0.00
36, -15349.77, -14166.56, -13168.04, -14948.04, -18852.62, -17978.31, -138004.05, -102018.52, 0.00, 0.00, 0.00
37, -15349.66, -14166.58, -13168.40, -14948.02, -18855.01, -17999.43, -138006.86, -102021.52, 0.00, 0.00, 0.00
38, -15345.43, -14162.78, -13164.77, -14944.13, -18853.76, -17983.92, -138005.72, -102020.31, -0.01, -0.01, 1.09
39, -15339.87, -14157.73, -13159.79, -14938.94, -18851.17, -17961.57, -138003.23, -102017.74, 0.00, 0.00, 0.00
40, -15337.30, -14155.38, -13157.69, -14936.58, -18851.04, -17974.15, -138003.52, -102018.14, 0.00, 0.00, 0.00
41, -15333.81, -14152.05, -13154.56, -14933.13, -18850.01, -17995.46, -138002.89, -102017.60, 0.00, 0.00, 0.00
42, -15328.80, -14147.54, -13150.27, -14928.51, -18847.91, -17984.77, -138001.09, -102015.86, 0.00, 0.00, 0.00
43, -15324.29, -14143.45, -13146.31, -14924.26, -18846.30, -17960.12, -137999.58, -102014.12, 0.00, 0.00, 0.00
44, -15322.23, -14141.66, -13144.73, -14922.38, -18846.81, -17966.26, -138000.47, -102014.95, 0.00, 0.00, 0.00
45, -15320.98, -14140.50, -13143.85, -14921.22, -18848.06, -17991.32, -138002.03, -102016.76, 0.00, 0.00, 0.00
46, -15318.12, -14137.95, -13141.55, -14918.60, -18847.91, -17988.86, -138002.11, -102016.95, 0.00, 0.00, 0.00
47, -15312.80, -14133.28, -13136.95, -14913.71, -18845.56, -17962.62, -137999.98, -102014.59, 0.00, 0.00, 0.00
48, -15309.13, -14129.86, -13133.71, -14910.29, -18844.55, -17962.00, -137999.23, -102013.83, -0.01, -0.01, 1.08
49, -15308.46, -14129.30, -13133.42, -14909.75, -18846.25, -17988.33, -138001.34, -102016.17, 0.00, 0.00, 0.00
50, -15305.60, -14126.62, -13131.07, -14907.03, -18846.03, -17992.24, -138001.44, -102016.30, 0.00, 0.00, 0.00
51, -15300.91, -14122.48, -13127.09, -14902.71, -18844.29, -17966.91, -137999.94, -102014.74, 0.00, 0.00, 0.00
52, -15301.20, -14123.17, -13127.92, -14903.38, -18847.41, -17963.13, -138003.33, -102018.14, 0.00, 0.00, 0.00
53, -15298.34, -14120.29, -13125.32, -14900.50, -18846.90, -17985.53, -138003.13, -102018.23, 0.00, 0.00, 0.00
54, -15293.67, -14115.91, -13121.23, -14895.96, -18844.89, -17994.03, -138001.44, -102016.60, 0.00, 0.00, 0.00
55, -15287.97, -14110.68, -13116.18, -14890.67, -18842.23, -17970.20, -137999.02, -102013.89, 0.00, 0.00, 0.00
56, -15285.49, -14108.58, -13114.30, -14888.61, -18842.59, -17958.98, -137999.59, -102014.52, 0.00, 0.00, 0.00
57, -15284.82, -14108.04, -13114.01, -14887.96, -18844.33, -17980.82, -138001.72, -102016.76, 0.00, 0.00, 0.00
58, -15285.62, -14109.09, -13115.24, -14888.85, -18847.75, -17999.84, -138005.39, -102020.55, -0.02, -0.01, 1.08
59, -15280.34, -14104.44, -13110.75, -14883.96, -18845.49, -17979.61, -138003.23, -102018.30, 0.00, 0.00, 0.00
60, -15277.73, -14102.21, -13108.67, -14881.70, -18845.67, -17962.17, -138003.69, -102018.63, 0.00, 0.00, 0.00
61, -15276.59, -14101.20, -13107.80, -14880.58, -18846.88, -17979.01, -138005.28, -102020.45, 0.00, 0.00, 0.00
62, -15274.42, -14099.12, -13106.08, -14878.57, -18847.21, -17999.08, -138005.86, -102021.23, 0.00, 0.00, 0.00
63, -15268.30, -14093.47, -13100.63, -14872.78, -18843.95, -17983.12, -138002.81, -102018.08, 0.00, 0.00, 0.00
64, -15263.60, -14089.40, -13096.60, -14868.58, -18842.27, -17960.77, -138001.34, -102016.48, 0.00, 0.00, 0.00
65, -15264.16, -14090.18, -13097.56, -14869.25, -18845.36, -17974.33, -138004.67, -102019.86, 0.00, 0.00, 0.00
66, -15264.72, -14090.76, -13098.50, -14869.74, -18848.20, -18000.17, -138008.05, -102023.33, 0.00, 0.00, 0.00
67, -15260.97, -14087.48, -13095.35, -14866.28, -18847.33, -17992.28, -138007.36, -102022.70, 0.00, 0.00, 0.00
68, -15252.43, -14079.34, -13087.33, -14858.12, -18841.74, -17963.02, -138001.88, -102017.00, -0.01, -0.01, 1.08
69, -15248.78, -14075.88, -13084.13, -14854.72, -18840.62, -17966.46, -138001.09, -102016.29, 0.00, 0.00, 0.00
70, -15246.73, -14073.98, -13082.41, -14852.73, -18840.98, -17991.23, -138001.81, -102017.29, 0.00, 0.00, 0.00
71, -15243.38, -14070.96, -13079.64, -14849.60, -18840.35, -17990.18, -138001.44, -102016.84, 0.00, 0.00, 0.00
72, -15236.27, -14064.37, -13073.18, -14842.83, -18836.33, -17962.51, -137997.55, -102012.82, 0.00, 0.00, 0.00
73, -15232.13, -14060.57, -13069.49, -14838.92, -18834.83, -17959.27, -137996.36, -102011.66, 0.00, 0.00, 0.00
74, -15232.91, -14061.46, -13070.67, -14839.81, -18837.92, -17986.63, -137999.86, -102015.39, 0.00, 0.00, 0.00
75, -15233.61, -14062.33, -13071.88, -14840.71, -18841.34, -17995.43, -138003.52, -102019.10, 0.00, 0.00, 0.00
76, -15225.25, -14054.42, -13064.17, -14832.66, -18835.93, -17966.38, -137998.30, -102013.78, 0.00, 0.00, 0.00
77, -15218.88, -14048.61, -13058.36, -14826.56, -18832.37, -17954.93, -137995.06, -102010.61, 0.00, 0.00, 0.00
78, -15219.68, -14049.57, -13059.52, -14827.45, -18835.68, -17980.44, -137998.69, -102014.41, -0.02, -0.01, 1.08
79, -15217.58, -14047.58, -13057.84, -14825.49, -18836.08, -17992.68, -137999.31, -102015.19, 0.00, 0.00, 0.00
80, -15210.74, -14041.23, -13051.67, -14819.12, -18832.28, -17968.66, -137995.64, -102011.44, 0.00, 0.00, 0.00
81, -15207.37, -14038.28, -13048.97, -14816.12, -18831.84, -17954.55, -137995.39, -102011.10, 0.00, 0.00, 0.00
82, -15207.10, -14038.15, -13049.08, -14815.99, -18833.96, -17975.63, -137997.92, -102013.83, 0.00, 0.00, 0.00
83, -15208.84, -14040.05, -13051.05, -14817.66, -18838.12, -17996.44, -138002.44, -102018.43, 0.00, 0.00, 0.00
84, -15205.15, -14036.81, -13048.10, -14814.31, -18837.38, -17978.56, -138001.92, -102017.88, 0.00, 0.00, 0.00
85, -15200.91, -14033.07, -13044.50, -14810.47, -18835.99, -17958.66, -138000.69, -102016.64, 0.00, 0.00, 0.00
86, -15199.48, -14031.73, -13043.43, -14809.13, -18836.96, -17974.02, -138001.91, -102018.01, 0.00, 0.00, 0.00
87, -15201.91, -14034.35, -13046.29, -14811.65, -18841.85, -17999.88, -138007.28, -102023.44, 0.00, 0.00, 0.00
88, -15198.81, -14031.78, -13043.81, -14808.95, -18841.67, -17988.95, -138007.25, -102023.39, -0.02, -0.01, 1.08
89, -15189.57, -14023.08, -13035.20, -14800.01, -18835.39, -17961.06, -138001.13, -102017.29, 0.00, 0.00, 0.00
90, -15187.76, -14021.52, -13033.91, -14798.44, -18836.13, -17970.62, -138002.33, -102018.52, 0.00, 0.00, 0.00
91, -15186.80, -14020.47, -13033.26, -14797.44, -18837.54, -17995.28, -138004.05, -102020.47, 0.00, 0.00, 0.00
92, -15183.58, -14017.65, -13030.62, -14794.40, -18837.20, -17989.15, -138003.88, -102020.27, 0.00, 0.00, 0.00
93, -15176.81, -14011.44, -13024.50, -14788.00, -18833.40, -17961.62, -138000.20, -102016.47, 0.00, 0.00, 0.00
94, -15172.27, -14007.17, -13020.40, -14783.76, -18831.30, -17962.46, -137998.56, -102014.84, 0.00, 0.00, 0.00
95, -15173.91, -14008.84, -13022.33, -14785.28, -18835.17, -17990.94, -138002.89, -102019.30, 0.00, 0.00, 0.00
96, -15171.56, -14006.76, -13020.56, -14783.13, -18835.48, -17993.11, -138003.52, -102020.00, 0.00, 0.00, 0.00
97, -15162.15, -13997.91, -13011.78, -14774.21, -18829.13, -17962.93, -137997.20, -102013.63, 0.00, 0.00, 0.00
98, -15159.71, -13995.83, -13009.83, -14772.13, -18829.47, -17959.49, -137997.70, -102014.23, 0.00, 0.00, 0.00
99, -15160.54, -13996.71, -13011.00, -14773.03, -18832.71, -17986.27, -138001.28, -102017.98, -0.01, -0.01, 1.08
100, -15157.34, -13993.69, -13008.27, -14769.90, -18832.04, -17992.80, -138001.03, -102017.78, 0.00, 0.00, 0.00
101, -15151.46, -13988.37, -13003.06, -14764.33, -18829.09, -17967.31, -137998.14, -102014.92, 0.00, 0.00, 0.00
102, -15148.76, -13986.16, -13000.87, -14761.96, -18829.20, -17957.86, -137998.39, -102015.21, 0.00, 0.00, 0.00
103, -15148.65, -13986.18, -13001.23, -14761.99, -18831.54, -17981.91, -138001.14, -102018.09, 0.00, 0.00, 0.00
104, -15143.95, -13981.57, -12997.05, -14757.45, -18829.31, -17993.42, -137999.33, -102016.38, 0.00, 0.00, 0.00
105, -15138.39, -13976.59, -12992.15, -14752.29, -18826.74, -17971.38, -137997.03, -102013.94, 0.00, 0.00, 0.00
106, -15133.83, -13972.52, -12988.20, -14748.06, -18825.06, -17954.73, -137995.58, -102012.40, 0.00, 0.00, 0.00
107, -15134.59, -13973.51, -12989.36, -14749.00, -18828.26, -17975.74, -137999.20, -102016.13, 0.00, 0.00, 0.00
108, -15135.97, -13974.98, -12991.15, -14750.38, -18832.15, -17997.36, -138003.36, -102020.45, 0.00, 0.00, 0.00
109, -15132.22, -13971.61, -12987.93, -14746.94, -18831.28, -17981.11, -138002.55, -102019.73, -0.02, -0.01, 1.09
110, -15125.40, -13965.39, -12981.87, -14740.66, -18827.52, -17957.93, -137998.92, -102016.06, 0.00, 0.00, 0.00
111, -15124.60, -13964.72, -12981.47, -14740.01, -18829.15, -17972.95, -138000.92, -102018.23, 0.00, 0.00, 0.00
112, -15122.43, -13962.64, -12979.63, -14737.87, -18829.31, -17995.52, -138001.63, -102018.99, 0.00, 0.00, 0.00
113, -15117.60, -13958.31, -12975.54, -14733.31, -18827.41, -17983.88, -137999.91, -102017.29, 0.00, 0.00, 0.00
114, -15111.28, -13952.38, -12969.84, -14727.36, -18824.01, -17958.13, -137996.78, -102014.01, 0.00, 0.00, 0.00
115, -15109.51, -13950.89, -12968.46, -14725.82, -18824.75, -17966.11, -137997.92, -102015.19, 0.00, 0.00, 0.00
116, -15110.36, -13951.89, -12969.69, -14726.65, -18827.90, -17992.75, -138001.44, -102018.95, 0.00, 0.00, 0.00
117, -15106.05, -13947.94, -12965.96, -14722.54, -18826.36, -17987.50, -138000.02, -102017.54, 0.00, 0.00, 0.00
118, -15102.60, -13945.01, -12963.16, -14719.45, -18825.89, -17963.13, -137999.69, -102017.07, 0.00, 0.00, 0.00
119, -15100.93, -13943.62, -12961.96, -14717.97, -18826.90, -17965.19, -138000.94, -102018.34, -0.02, -0.01, 1.09
120, -15098.31, -13941.03, -12959.72, -14715.52, -18826.58, -17989.87, -138001.09, -102018.70, 0.00, 0.00, 0.00
121, -15096.90, -13939.98, -12958.83, -14714.29, -18827.83, -17994.09, -138002.64, -102020.35, 0.00, 0.00, 0.00
122, -15090.24, -13933.88, -12952.88, -14708.07, -18824.21, -17966.82, -137999.13, -102016.84, 0.00, 0.00, 0.00
123, -15086.98, -13930.93, -12950.13, -14705.17, -18823.65, -17960.79, -137998.86, -102016.58, 0.00, 0.00, 0.00
124, -15086.13, -13930.10, -12949.50, -14704.23, -18825.13, -17985.02, -138000.69, -102018.48, 0.00, 0.00, 0.00
125, -15084.57, -13928.85, -12948.50, -14702.82, -18826.18, -17995.03, -138002.03, -102019.95, 0.00, 0.00, 0.00
126, -15080.21, -13925.05, -12944.92, -14698.86, -18824.84, -17971.85, -138000.94, -102018.70, 0.00, 0.00, 0.00
127, -15073.14, -13918.23, -12938.42, -14692.11, -18820.48, -17956.63, -137996.80, -102014.59, 0.00, 0.00, 0.00
128, -15072.03, -13917.18, -12937.66, -14691.00, -18821.73, -17978.89, -137998.41, -102016.35, 0.00, 0.00, 0.00
129, -15069.08, -13914.56, -12935.00, -14688.27, -18821.38, -17993.20, -137998.30, -102016.40, -0.02, -0.01, 1.09
130, -15064.23, -13910.25, -12930.95, -14683.80, -18819.59, -17972.97, -137996.61, -102014.66, 0.00, 0.00, 0.00
131, -15058.17, -13904.71, -12925.54, -14678.28, -18816.44, -17953.35, -137993.70, -102011.66, 0.00, 0.00, 0.00
132, -15057.68, -13904.19, -12925.32, -14677.72, -18818.27, -17971.09, -137995.80, -102014.07, 0.00, 0.00, 0.00
133, -15056.45, -13903.19, -12924.61, -14676.58, -18819.54, -17991.66, -137997.55, -102015.91, 0.00, 0.00, 0.00
134, -15053.61, -13900.73, -12922.28, -14674.08, -18819.59, -17977.93, -137997.77, -102016.11, 0.00, 0.00, 0.00
135, -15047.01, -13894.63, -12916.47, -14667.82, -18815.90, -17954.28, -137994.22, -102012.60, 0.00, 0.00, 0.00
136, -15044.87, -13892.70, -12914.66, -14665.81, -18816.23, -17966.64, -137994.84, -102013.29, 0.00, 0.00, 0.00
137, -15044.29, -13892.26, -12914.44, -14665.34, -18818.09, -17991.10, -137997.05, -102015.62, 0.00, 0.00, 0.00
138, -15045.09, -13893.35, -12915.91, -14666.41, -18821.78, -17986.61, -138000.94, -102019.48, 0.00, 0.00, 0.00
139, -15038.81, -13887.58, -12910.46, -14660.64, -18818.40, -17960.12, -137997.81, -102016.30, -0.02, -0.01, 1.08
140, -15033.40, -13882.44, -12905.49, -14655.39, -18815.50, -17962.35, -137995.23, -102013.78, 0.00, 0.00, 0.00
141, -15031.46, -13880.57, -12903.82, -14653.45, -18815.92, -17986.96, -137995.98, -102014.77, 0.00, 0.00, 0.00
142, -15029.11, -13878.58, -12901.96, -14651.37, -18816.41, -17985.67, -137996.58, -102015.41, 0.00, 0.00, 0.00
143, -15025.16, -13875.16, -12898.63, -14647.75, -18815.34, -17960.72, -137995.78, -102014.41, 0.00, 0.00, 0.00
144, -15021.33, -13871.76, -12895.35, -14644.24, -18814.22, -17959.60, -137994.92, -102013.56, 0.00, 0.00, 0.00
145, -15022.09, -13872.59, -12896.49, -14645.06, -18817.35, -17987.28, -137998.48, -102017.31, 0.00, 0.00, 0.00
146, -15021.89, -13872.63, -12896.82, -14645.02, -18819.81, -17994.32, -138001.25, -102020.13, 0.00, 0.00, 0.00
147, -15015.45, -13866.62, -12891.06, -14638.98, -18816.23, -17967.14, -137997.97, -102016.69, 0.00, 0.00, 0.00
148, -15007.99, -13859.60, -12884.15, -14631.81, -18811.59, -17955.20, -137993.47, -102012.28, 0.00, 0.00, 0.00
149, -15006.60, -13858.21, -12883.12, -14630.47, -18812.55, -17978.85, -137994.86, -102013.85, -0.02, -0.01, 1.08
150, -15005.64, -13857.54, -12882.72, -14629.80, -18814.09, -17991.07, -137996.78, -102015.84, 0.00, 0.00, 0.00
151, -15003.18, -13855.76, -12881.00, -14627.79, -18814.71, -17970.53, -137997.55, -102016.47, 0.00, 0.00, 0.00
152, -14996.43, -13849.41, -12874.87, -14621.37, -18810.76, -17954.44, -137993.88, -102012.77, 0.00, 0.00, 0.00
153, -14995.14, -13848.18, -12873.87, -14620.12, -18811.81, -17975.18, -137995.17, -102014.34, 0.00, 0.00, 0.00
154, -14996.59, -13849.81, -12875.66, -14621.64, -18815.77, -17994.99, -137999.42, -102018.70, 0.00, 0.00, 0.00
155, -14991.58, -13845.34, -12871.34, -14616.95, -18813.69, -17975.41, -137997.61, -102016.78, 0.00, 0.00, 0.00
156, -14984.83, -13839.06, -12865.17, -14610.44, -18809.75, -17953.64, -137993.91, -102012.95, 0.00, 0.00, 0.00
157, -14982.91, -13837.27, -12863.65, -14608.65, -18810.27, -17969.55, -137994.64, -102013.88, 0.00, 0.00, 0.00
158, -14979.74, -13834.21, -12860.77, -14605.55, -18809.51, -17989.29, -137994.17, -102013.60, 0.00, 0.00, 0.00
159, -14974.51, -13829.36, -12856.23, -14600.74, -18807.23, -17975.07, -137992.09, -102011.37, -0.02, -0.01, 1.08
160, -14966.44, -13821.78, -12848.99, -14593.10, -18802.04, -17949.32, -137987.17, -102006.48, 0.00, 0.00, 0.00
161, -14964.74, -13820.28, -12847.65, -14591.49, -18802.85, -17960.10, -137988.31, -102007.75, 0.00, 0.00, 0.00
162, -14967.26, -13822.90, -12850.55, -14594.03, -18807.81, -17988.10, -137993.67, -102013.20, 0.00, 0.00, 0.00
163, -14960.96, -13817.02, -12844.90, -14588.04, -18804.25, -17978.18, -137990.39, -102009.88, 0.00, 0.00, 0.00
164, -14953.47, -13810.18, -12838.10, -14580.91, -18799.78, -17949.70, -137985.89, -102005.38, 0.00, 0.00, 0.00
165, -14950.34, -13807.28, -12835.38, -14578.08, -18799.31, -17953.01, -137985.70, -102005.31, 0.00, 0.00, 0.00
166, -14951.66, -13808.71, -12836.96, -14579.28, -18802.98, -17980.97, -137989.86, -102009.54, 0.00, 0.00, 0.00
167, -14952.02, -13809.40, -12838.06, -14579.98, -18806.06, -17984.12, -137993.27, -102013.05, 0.00, 0.00, 0.00
168, -14951.37, -13809.33, -12838.10, -14579.80, -18808.41, -17962.84, -137995.80, -102015.50, 0.00, 0.00, 0.00
169, -14949.23, -13807.45, -12836.47, -14577.85, -18808.90, -17961.10, -137996.58, -102016.35, -0.02, -0.01, 1.08
170, -14948.51, -13806.78, -12836.07, -14577.11, -18810.54, -17986.67, -137998.45, -102018.52, 0.00, 0.00, 0.00
171, -14943.39, -13801.98, -12831.47, -14572.20, -18808.03, -17990.40, -137996.22, -102016.33, 0.00, 0.00, 0.00
172, -14935.19, -13794.38, -12824.02, -14564.42, -18802.89, -17961.97, -137991.33, -102011.23, 0.00, 0.00, 0.00
173, -14932.46, -13791.85, -12821.79, -14561.98, -18802.94, -17953.28, -137991.53, -102011.48, 0.00, 0.00, 0.00
174, -14930.54, -13789.95, -12820.16, -14560.08, -18803.29, -17975.74, -137992.27, -102012.48, 0.00, 0.00, 0.00
175, -14929.00, -13788.68, -12819.08, -14558.65, -18804.28, -17989.04, -137993.58, -102013.89, 0.00, 0.00, 0.00
176, -14924.08, -13784.32, -12814.97, -14554.16, -18802.33, -17967.25, -137991.84, -102012.06, 0.00, 0.00, 0.00
177, -14917.51, -13778.17, -12809.09, -14548.01, -18798.62, -17949.39, -137988.36, -102008.59, 0.00, 0.00, 0.00
178, -14918.36, -13779.16, -12810.28, -14549.06, -18801.93, -17971.41, -137992.00, -102012.45, 0.00, 0.00, 0.00
179, -14915.54, -13776.43, -12807.91, -14546.22, -18801.53, -17988.39, -137991.97, -102012.45, -0.02, -0.01, 1.08
180, -14911.25, -13772.63, -12804.35, -14542.18, -18800.03, -17970.40, -137990.81, -102011.21, 0.00, 0.00, 0.00
181, -14905.42, -13767.29, -12799.26, -14536.77, -18797.21, -17948.81, -137988.13, -102008.44, 0.00, 0.00, 0.00
182, -14904.28, -13766.39, -12798.36, -14535.79, -18798.53, -17964.03, -137989.70, -102010.16, 0.00, 0.00, 0.00
183, -14903.27, -13765.54, -12797.76, -14534.80, -18799.87, -17986.89, -137991.42, -102012.11, 0.00, 0.00, 0.00
184, -14898.78, -13761.45, -12793.89, -14530.65, -18798.24, -17975.09, -137989.88, -102010.61, 0.00, 0.00, 0.00
185, -14892.14, -13755.44, -12787.99, -14524.41, -18794.58, -17949.61, -137986.39, -102007.13, 0.00, 0.00, 0.00
186, -14891.58, -13755.17, -12787.83, -14523.96, -18796.56, -17959.71, -137988.72, -102009.47, 0.00, 0.00, 0.00
187, -14892.25, -13755.80, -12788.93, -14524.65, -18799.61, -17986.34, -137992.16, -102013.05, 0.00, 0.00, 0.00
188, -14888.99, -13752.89, -12786.29, -14521.73, -18799.07, -17980.88, -137991.97, -102012.91, 0.00, 0.00, 0.00
189, -14881.79, -13746.25, -12779.77, -14514.84, -18794.84, -17952.83, -137987.95, -102008.75, -0.02, -0.01, 1.08
190, -14882.37, -13747.02, -12780.77, -14515.63, -18797.95, -17958.08, -137991.23, -102012.22, 0.00, 0.00, 0.00
191, -14886.28, -13750.95, -12785.11, -14519.51, -18804.23, -17988.84, -137997.88, -102019.04, 0.00, 0.00, 0.00
192, -14881.92, -13747.04, -12781.42, -14515.56, -18802.62, -17989.53, -137996.56, -102017.76, 0.00, 0.00, 0.00
193, -14873.54, -13739.30, -12773.73, -14507.60, -18797.23, -17960.50, -137991.27, -102012.48, 0.00, 0.00, 0.00
194, -14867.75, -13733.78, -12768.46, -14502.06, -18794.20, -17953.30, -137988.47, -102009.71, 0.00, 0.00, 0.00
195, -14866.97, -13733.11, -12768.08, -14501.32, -18795.83, -17978.45, -137990.48, -102011.93, 0.00, 0.00, 0.00
196, -14864.94, -13731.39, -12766.62, -14499.42, -18796.41, -17986.72, -137991.27, -102012.77, 0.00, 0.00, 0.00
197, -14860.69, -13727.61, -12763.00, -14495.55, -18795.04, -17963.00, -137990.03, -102011.52, 0.00, 0.00, 0.00
198, -14856.42, -13723.66, -12759.29, -14491.55, -18793.50, -17951.27, -137988.89, -102010.20, 0.00, 0.00, 0.00
199, -14857.85, -13725.22, -12761.01, -14493.03, -18797.23, -17976.57, -137993.05, -102014.61, -0.02, -0.01, 1.08
200, -14859.62, -13727.23, -12763.38, -14495.02, -18801.59, -17995.30, -137997.78, -102019.52, 0.00, 0.00, 0.00
201, -14854.88, -13722.99, -12759.27, -14490.66, -18799.87, -17974.38, -137996.11, -102017.83, 0.00, 0.00, 0.00
202, -14848.98, -13717.49, -12753.95, -14485.07, -18796.74, -17955.78, -137993.31, -102014.95, 0.00, 0.00, 0.00
203, -14848.38, -13717.09, -12753.84, -14484.67, -18798.62, -17974.96, -137995.63, -102017.36, 0.00, 0.00, 0.00
204, -14847.95, -13716.84, -12753.77, -14484.31, -18800.54, -17994.88, -137997.91, -102019.88, 0.00, 0.00, 0.00
205, -14844.46, -13713.85, -12750.95, -14481.14, -18800.01, -17979.18, -137997.45, -102019.46, 0.00, 0.00, 0.00
206, -14838.18, -13708.06, -12745.48, -14475.26, -18796.72, -17956.23, -137994.28, -102016.30, 0.00, 0.00, 0.00
207, -14834.76, -13704.75, -12742.44, -14471.97, -18795.74, -17967.94, -137993.67, -102015.80, 0.00, 0.00, 0.00
208, -14831.86, -13702.02, -12740.02, -14469.22, -18795.40, -17990.16, -137993.66, -102015.91, 0.00, 0.00, 0.00
209, -14828.35, -13699.03, -12737.07, -14466.03, -18794.58, -17980.48, -137993.05, -102015.39, -0.01, -0.01, 1.08
210, -14818.36, -13689.59, -12727.80, -14456.46, -18787.56, -17950.98, -137986.36, -102008.55, 0.00, 0.00, 0.00
211, -14818.63, -13689.97, -12728.47, -14456.75, -18790.31, -17960.34, -137989.36, -102011.77, 0.00, 0.00, 0.00
212, -14816.99, -13688.41, -12727.28, -14455.12, -18791.09, -17984.82, -137990.48, -102013.16, 0.00, 0.00, 0.00
213, -14813.15, -13684.99, -12724.04, -14451.56, -18789.95, -17980.73, -137989.58, -102012.24, 0.00, 0.00, 0.00
214, -14805.93, -13678.46, -12717.56, -14444.93, -18785.79, -17952.52, -137985.66, -102007.95, 0.00, 0.00, 0.00
215, -14803.38, -13676.27, -12715.55, -14442.62, -18785.88, -17953.12, -137986.09, -102008.44, 0.00, 0.00, 0.00
216, -14804.61, -13677.61, -12717.25, -14443.96, -18789.55, -17981.60, -137990.09, -102012.82, 0.00, 0.00, 0.00
217, -14803.63, -13676.81, -12716.73, -14443.18, -18791.16, -17986.72, -137992.06, -102014.88, 0.00, 0.00, 0.00
218, -14796.21, -13669.81, -12709.96, -14436.12, -18786.69, -17958.55, -137987.75, -102010.43, 0.00, 0.00, 0.00
219, -14792.25, -13666.28, -12706.61, -14432.32, -18785.48, -17951.36, -137986.86, -102009.42, -0.01, -0.01, 1.08
220, -14793.26, -13667.35, -12708.02, -14433.28, -18788.81, -17977.31, -137990.48, -102013.29, 0.00, 0.00, 0.00
221, -14790.91, -13665.23, -12706.21, -14431.09, -18789.03, -17987.32, -137991.02, -102013.98, 0.00, 0.00, 0.00
222, -14782.95, -13657.79, -12698.85, -14423.47, -18783.98, -17960.77, -137986.13, -102008.91, 0.00, 0.00, 0.00
223, -14776.98, -13652.13, -12693.44, -14417.81, -18780.79, -17946.01, -137983.17, -102005.94, 0.00, 0.00, 0.00
224, -14776.94, -13652.20, -12693.82, -14417.97, -18783.20, -17969.10, -137986.05, -102009.00, 0.00, 0.00, 0.00
225, -14777.16, -13652.69, -12694.58, -14418.33, -18785.90, -17987.16, -137989.03, -102012.17, 0.00, 0.00, 0.00
226, -14775.15, -13651.26, -12693.15, -14416.56, -18786.86, -17969.86, -137990.08, -102013.05, 0.00, 0.00, 0.00
227, -14770.30, -13646.88, -12688.91, -14412.05, -18784.83, -17951.04, -137988.31, -102011.19, 0.00, 0.00, 0.00
228, -14769.34, -13646.19, -12688.44, -14411.24, -18786.33, -17968.14, -137990.09, -102013.23, 0.00, 0.00, 0.00
229, -14771.46, -13648.38, -12690.94, -14413.43, -18790.84, -17992.26, -137995.02, -102018.37, -0.01, -0.01, 1.09
230, -14765.99, -13643.30, -12686.16, -14408.29, -18788.27, -17976.41, -137992.61, -102015.98, 0.00, 0.00, 0.00
231, -14759.77, -13637.74, -12680.68, -14402.55, -18784.99, -17952.70, -137989.55, -102012.80, 0.00, 0.00, 0.00
232, -14758.92, -13637.09, -12680.30, -14401.92, -18786.57, -17965.59, -137991.58, -102014.95, 0.00, 0.00, 0.00
233, -14758.05, -13636.33, -12679.85, -14401.09, -18788.12, -17989.78, -137993.52, -102017.05, 0.00, 0.00, 0.00
234, -14753.89, -13632.57, -12676.34, -14397.14, -18786.73, -17980.86, -137992.31, -102015.93, 0.00, 0.00, 0.00
235, -14746.29, -13625.53, -12669.46, -14390.03, -18782.10, -17953.01, -137987.86, -102011.32, 0.00, 0.00, 0.00
236, -14743.59, -13623.05, -12667.18, -14387.44, -18781.92, -17957.23, -137987.97, -102011.52, 0.00, 0.00, 0.00
237, -14746.14, -13625.60, -12670.09, -14389.90, -18786.78, -17986.07, -137993.16, -102016.89, 0.00, 0.00, 0.00
238, -14744.48, -13624.35, -12668.99, -14388.40, -18787.78, -17985.89, -137994.55, -102018.21, 0.00, 0.00, 0.00
239, -14738.27, -13618.74, -12663.58, -14382.65, -18784.58, -17958.82, -137991.48, -102015.08, -0.01, -0.01, 1.08
240, -14733.58, -13614.49, -12659.60, -14378.36, -18782.60, -17956.18, -137989.86, -102013.41, 0.00, 0.00, 0.00
241, -14733.31, -13614.22, -12659.63, -14378.00, -18784.56, -17982.40, -137992.22, -102016.09, 0.00, 0.00, 0.00
242, -14728.84, -13610.11, -12655.69, -14373.71, -18782.91, -17985.87, -137990.69, -102014.63, 0.00, 0.00, 0.00
243, -14722.96, -13604.81, -12650.57, -14368.35, -18780.14, -17959.71, -137988.00, -102011.91, 0.00, 0.00, 0.00
244, -14717.77, -13599.90, -12645.88, -14363.39, -18777.57, -17949.28, -137985.70, -102009.70, 0.00, 0.00, 0.00
245, -14716.70, -13598.93, -12645.16, -14362.31, -18778.75, -17972.86, -137987.39, -102011.52, 0.00, 0.00, 0.00
246, -14713.62, -13596.10, -12642.62, -14359.32, -18778.24, -17983.74, -137987.23, -102011.39, 0.00, 0.00, 0.00
247, -14710.17, -13593.10, -12639.78, -14356.14, -18777.77, -17962.35, -137986.83, -102010.99, 0.00, 0.00, 0.00
248, -14706.26, -13589.77, -12636.58, -14352.70, -18776.72, -17948.61, -137986.05, -102010.16, 0.00, 0.00, 0.00
249, -14705.97, -13589.50, -12636.71, -14352.57, -18778.79, -17970.04, -137988.53, -102012.77, -0.01, -0.01, 1.08
250, -14705.88, -13589.55, -12637.05, -14352.59, -18781.21, -17988.88, -137991.22, -102015.66, 0.00, 0.00, 0.00
251, -14699.80, -13584.05, -12631.75, -14346.89, -18778.13, -17968.81, -137988.27, -102012.73, 0.00, 0.00, 0.00
252, -14693.97, -13578.73, -12626.52, -14341.28, -18775.13, -17947.38, -137985.45, -102009.76, 0.00, 0.00, 0.00
253, -14693.61, -13578.62, -12626.59, -14341.10, -18777.21, -17964.16, -137987.95, -102012.35, 0.00, 0.00, 0.00
254, -14691.73, -13576.87, -12625.23, -14339.22, -18777.70, -17985.20, -137988.80, -102013.52, 0.00, 0.00, 0.00
255, -14686.91, -13572.40, -12621.00, -14334.67, -18775.62, -17971.45, -137986.98, -102011.59, 0.00, 0.00, 0.00
0, -14682.75, -13568.72, -12617.47, -14330.95, -18774.39, -17949.32, -137986.03, -102010.48, 0.00, 0.00, 0.00
1, -14681.92, -13568.20, -12617.07, -14330.35, -18776.16, -17960.65, -137988.09, -102012.69, 0.00, 0.00, 0.00
2, -14682.84, -13569.23, -12618.36, -14331.33, -18779.42, -17987.21, -137991.75, -102016.53, 0.00, 0.00, 0.00
3, -14678.52, -13565.23, -12614.74, -14327.24, -18777.92, -17979.74, -137990.34, -102015.26, 0.00, 0.00, 0.00
4, -14669.94, -13557.47, -12606.92, -14319.13, -18772.40, -17950.06, -137985.03, -102009.83, -0.01, -0.01, 1.08
5, -14667.33, -13554.97, -12604.82, -14316.74, -18772.36, -17953.14, -137985.22, -102010.09, 0.00, 0.00, 0.00
6, -14666.68, -13554.32, -12604.62, -14316.16, -18774.10, -17979.36, -137987.34, -102012.38, 0.00, 0.00, 0.00
7, -14661.40, -13549.31, -12599.86, -14311.08, -18771.42, -17977.60, -137984.95, -102010.03, 0.00, 0.00, 0.00
8, -14654.61, -13543.21, -12593.78, -14304.69, -18767.60, -17950.22, -137981.27, -102006.27, 0.00, 0.00, 0.00
9, -14654.41, -13543.39, -12594.11, -14304.76, -18770.12, -17949.81, -137984.06, -102009.16, 0.00, 0.00, 0.00
10, -14654.27, -13543.30, -12594.38, -14304.69, -18772.34, -17975.81, -137986.66, -102011.93, 0.00, 0.00, 0.00
11, -14651.50, -13540.93, -12592.21, -14302.08, -18772.18, -17982.45, -137986.81, -102012.22, 0.00, 0.00, 0.00
12, -14646.27, -13536.19, -12587.72, -14297.16, -18769.90, -17956.92, -137984.75, -102009.96, 0.00, 0.00, 0.00
13, -14642.81, -13533.13, -12584.88, -14294.03, -18769.18, -17947.13, -137984.36, -102009.52, 0.00, 0.00, 0.00
14, -14642.29, -13532.77, -12584.72, -14293.60, -18771.02, -17970.87, -137986.59, -102012.06, -0.01, -0.00, 1.07
15, -14639.97, -13530.72, -12582.89, -14291.46, -18771.35, -17984.03, -137987.19, -102012.77, 0.00, 0.00, 0.00
16, -14633.96, -13525.17, -12577.62, -14285.80, -18768.24, -17961.50, -137984.28, -102009.80, 0.00, 0.00, 0.00
17, -14628.61, -13520.26, -12572.92, -14280.82, -18765.79, -17944.63, -137981.98, -102007.55, 0.00, 0.00, 0.00
18, -14627.43, -13519.21, -12572.14, -14279.70, -18766.93, -17964.07, -137983.59, -102009.27, 0.00, 0.00, 0.00
19, -14629.17, -13521.11, -12574.24, -14281.40, -18771.08, -17985.84, -137988.09, -102013.88, 0.00, 0.00, 0.00
20, -14622.38, -13514.83, -12568.14, -14274.99, -18767.22, -17965.82, -137984.33, -102010.14, 0.00, 0.00, 0.00
21, -14615.69, -13508.70, -12562.15, -14268.77, -18763.48, -17943.00, -137980.83, -102006.52, 0.00, 0.00, 0.00
22, -14616.41, -13509.59, -12563.20, -14269.73, -18766.63, -17959.67, -137984.36, -102010.25, 0.00, 0.00, 0.00
23, -14616.16, -13509.51, -12563.49, -14269.53, -18768.80, -17983.52, -137986.92, -102012.95, 0.00, 0.00, 0.00
24, -14612.97, -13506.78, -12561.05, -14266.63, -18768.47, -17973.46, -137986.72, -102012.87, -0.01, -0.01, 1.08
25, -14607.07, -13501.39, -12555.89, -14261.02, -18765.56, -17948.25, -137983.95, -102010.03, 0.00, 0.00, 0.00
26, -14606.66, -13501.28, -12555.91, -14260.88, -18767.69, -17958.11, -137986.52, -102012.66, 0.00, 0.00, 0.00
27, -14605.84, -13500.50, -12555.49, -14260.12, -18769.21, -17983.41, -137988.42, -102014.86, 0.00, 0.00, 0.00
28, -14602.15, -13497.15, -12552.45, -14256.66, -18768.27, -17977.91, -137987.73, -102014.16, 0.00, 0.00, 0.00
29, -14596.20, -13491.71, -12547.17, -14251.05, -18765.27, -17950.89, -137984.89, -102011.23, 0.00, 0.00, 0.00
30, -14592.27, -13488.14, -12543.73, -14247.31, -18763.93, -17951.20, -137983.91, -102010.27, 0.00, 0.00, 0.00
31, -14594.21, -13490.24, -12546.17, -14249.33, -18768.22, -17980.05, -137988.67, -102015.33, 0.00, 0.00, 0.00
32, -14589.47, -13485.95, -12541.99, -14244.79, -18766.14, -17980.82, -137986.95, -102013.65, 0.00, 0.00, 0.00
33, -14585.61, -13482.66, -12538.84, -14241.32, -18765.27, -17955.96, -137986.23, -102012.84, 0.00, 0.00, 0.00
34, -14582.14, -13479.42, -12535.93, -14238.13, -18764.45, -17950.44, -137985.78, -102012.33, -0.01, -0.01, 1.09
35, -14578.75, -13476.11, -12533.00, -14234.80, -18763.42, -17972.88, -137985.11, -102011.88, 0.00, 0.00, 0.00
36, -14577.47, -13475.04, -12532.29, -14233.72, -18764.76, -17982.31, -137986.66, -102013.54, 0.00, 0.00, 0.00
37, -14569.56, -13467.78, -12525.05, -14226.17, -18759.91, -17955.45, -137981.94, -102008.71, 0.00, 0.00, 0.00
38, -14565.54, -13464.18, -12521.60, -14222.39, -18758.70, -17943.71, -137980.94, -102007.63, 0.00, 0.00, 0.00
39, -14568.84, -13467.53, -12525.27, -14225.79, -18764.33, -17970.38, -137987.03, -102013.85, 0.00, 0.00, 0.00
40, -14566.47, -13465.41, -12523.53, -14223.64, -18764.54, -17985.33, -137987.59, -102014.59, 0.00, 0.00, 0.00
41, -14560.84, -13460.22, -12518.54, -14218.37, -18761.76, -17963.69, -137985.00, -102011.97, 0.00, 0.00, 0.00
42, -14555.48, -13455.41, -12513.78, -14213.43, -18759.30, -17945.34, -137982.77, -102009.60, 0.00, 0.00, 0.00
43, -14554.54, -13454.61, -12513.27, -14212.62, -18760.76, -17963.69, -137984.52, -102011.52, 0.00, 0.00, 0.00
44, -14551.86, -13451.97, -12511.05, -14209.90, -18760.40, -17982.04, -137984.52, -102011.77, -0.02, -0.01, 1.09
45, -14548.01, -13448.58, -12507.86, -14206.39, -18759.42, -17966.91, -137983.81, -102010.95, 0.00, 0.00, 0.00
46, -14542.31, -13443.46, -12502.85, -14201.16, -18756.67, -17944.34, -137981.30, -102008.38, 0.00, 0.00, 0.00
47, -14539.90, -13441.13, -12500.73, -14198.72, -18756.49, -17956.52, -137981.53, -102008.82, 0.00, 0.00, 0.00
48, -14540.28, -13441.60, -12501.55, -14199.19, -18759.33, -17982.22, -137984.73, -102012.11, 0.00, 0.00, 0.00
49, -14538.18, -13440.08, -12500.15, -14197.51, -18760.13, -17974.42, -137985.72, -102013.02, 0.00, 0.00, 0.00
50, -14532.41, -13434.87, -12495.16, -14192.15, -18757.31, -17948.85, -137982.98, -102010.38, 0.00, 0.00, 0.00
51, -14530.33, -13432.93, -12493.55, -14190.14, -18757.79, -17955.45, -137983.84, -102011.37, 0.00, 0.00, 0.00
52, -14528.66, -13431.32, -12492.19, -14188.33, -18758.37, -17979.72, -137984.83, -102012.40, 0.00, 0.00, 0.00
53, -14522.64, -13425.71, -12486.73, -14182.58, -18755.08, -17974.04, -137981.78, -102009.38, 0.00, 0.00, 0.00
54, -14516.45, -13420.03, -12481.35, -14176.95, -18752.04, -17947.11, -137978.81, -102006.38, -0.02, -0.01, 1.08
55, -14514.04, -13417.95, -12479.58, -14174.85, -18752.38, -17947.42, -137979.38, -102007.01, 0.00, 0.00, 0.00
56, -14514.37, -13418.27, -12480.21, -14175.03, -18754.86, -17974.89, -137982.39, -102010.14, 0.00, 0.00, 0.00
57, -14509.34, -13413.44, -12475.69, -14170.13, -18752.49, -17976.77, -137980.31, -102008.13, 0.00, 0.00, 0.00
58, -14502.64, -13407.42, -12469.79, -14163.90, -18748.73, -17949.61, -137976.75, -102004.59, 0.00, 0.00, 0.00
59, -14498.17, -13403.38, -12465.88, -14159.74, -18746.94, -17941.61, -137975.23, -102003.10, 0.00, 0.00, 0.00
60, -14500.34, -13405.61, -12468.41, -14161.93, -18751.48, -17968.52, -137980.16, -102008.15, 0.00, 0.00, 0.00
61, -14498.82, -13404.27, -12467.38, -14160.54, -18752.49, -17979.65, -137981.47, -102009.58, 0.00, 0.00, 0.00
62, -14491.89, -13397.90, -12461.25, -14153.97, -18748.53, -17954.46, -137977.73, -102005.67, 0.00, 0.00, 0.00
63, -14489.14, -13395.62, -12459.17, -14151.69, -18748.71, -17942.55, -137978.16, -102006.02, 0.00, 0.00, 0.00
64, -14490.05, -13396.61, -12460.52, -14152.79, -18752.00, -17966.31, -137981.83, -102009.94, -0.01, -0.01, 1.08
65, -14489.50, -13396.23, -12460.40, -14152.27, -18753.87, -17983.97, -137983.97, -102012.33, 0.00, 0.00, 0.00
66, -14483.39, -13390.71, -12455.00, -14146.40, -18750.74, -17963.02, -137980.98, -102009.27, 0.00, 0.00, 0.00
67, -14477.02, -13384.85, -12449.34, -14140.52, -18747.30, -17942.37, -137977.77, -102006.01, 0.00, 0.00, 0.00
68, -14475.35, -13383.35, -12448.07, -14138.93, -18748.06, -17958.49, -137978.83, -102007.21, 0.00, 0.00, 0.00
69, -14476.31, -13384.47, -12449.50, -14139.87, -18751.48, -17981.73, -137982.61, -102011.08, 0.00, 0.00, 0.00
70, -14474.70, -13383.44, -12448.67, -14138.68, -18752.80, -17970.09, -137984.16, -102012.60, 0.00, 0.00, 0.00
71, -14466.09, -13375.31, -12440.65, -14130.53, -18747.10, -17943.55, -137978.66, -102007.05, 0.00, 0.00, 0.00
72, -14462.03, -13371.51, -12437.02, -14126.70, -18745.47, -17952.79, -137977.47, -102005.98, 0.00, 0.00, 0.00
73, -14462.25, -13371.80, -12437.69, -14126.97, -18748.06, -17978.31, -137980.42, -102009.09, 0.00, 0.00, 0.00
74, -14458.90, -13368.91, -12434.99, -14123.89, -18747.46, -17970.82, -137980.05, -102008.73, -0.01, -0.01, 1.08
75, -14455.92, -13366.45, -12432.69, -14121.23, -18747.39, -17947.18, -137980.22, -102008.77, 0.00, 0.00, 0.00
76, -14455.28, -13366.03, -12432.55, -14120.69, -18749.29, -17952.96, -137982.39, -102011.15, 0.00, 0.00, 0.00
77, -14453.29, -13364.04, -12430.94, -14118.64, -18749.63, -17977.57, -137983.13, -102012.04, 0.00, 0.00, 0.00
78, -14449.17, -13360.33, -12427.55, -14114.88, -18748.35, -17975.74, -137982.08, -102011.05, 0.00, 0.00, 0.00
79, -14442.83, -13354.67, -12422.00, -14108.96, -18744.93, -17948.49, -137978.91, -102007.81, 0.00, 0.00, 0.00
80, -14441.04, -13353.18, -12420.66, -14107.39, -18745.80, -17947.69, -137980.02, -102009.05, 0.00, 0.00, 0.00
81, -14439.65, -13351.90, -12419.79, -14106.14, -18746.83, -17972.93, -137981.27, -102010.61, 0.00, 0.00, 0.00
82, -14436.50, -13349.00, -12417.22, -14103.26, -18746.32, -17978.16, -137981.16, -102010.34, 0.00, 0.00, 0.00
83, -14428.25, -13341.31, -12409.55, -14095.28, -18740.93, -17949.68, -137976.02, -102005.02, 0.00, 0.00, 0.00
84, -14424.70, -13338.11, -12406.49, -14091.88, -18740.04, -17940.31, -137975.34, -102004.35, -0.01, -0.01, 1.08
85, -14420.83, -13334.31, -12403.14, -14088.06, -18738.61, -17961.21, -137974.23, -102003.52, 0.00, 0.00, 0.00
86, -14417.05, -13330.89, -12399.99, -14084.48, -18737.49, -17972.01, -137973.41, -102002.85, 0.00, 0.00, 0.00
87, -14413.88, -13328.25, -12397.60, -14081.71, -18737.24, -17951.56, -137973.42, -102002.85, 0.00, 0.00, 0.00
88, -14410.59, -13325.39, -12394.98, -14078.83, -18736.82, -17938.28, -137973.22, -102002.65, 0.00, 0.00, 0.00
89, -14409.07, -13324.03, -12393.82, -14077.31, -18737.67, -17958.38, -137974.45, -102003.99, 0.00, 0.00, 0.00
90, -14409.21, -13324.37, -12394.38, -14077.51, -18740.35, -17977.75, -137977.33, -102007.13, 0.00, 0.00, 0.00
91, -14405.83, -13321.42, -12391.65, -14074.47, -18739.86, -17960.34, -137977.25, -102006.95, 0.00, 0.00, 0.00
92, -14400.65, -13316.74, -12387.22, -14069.66, -18737.49, -17939.17, -137975.09, -102004.84, 0.00, 0.00, 0.00
93, -14399.87, -13316.05, -12386.87, -14068.99, -18739.08, -17955.11, -137977.11, -102006.97, 0.00, 0.00, 0.00
94, -14398.17, -13314.42, -12385.57, -14067.34, -18739.79, -17976.93, -137978.16, -102008.20, -0.01, -0.01, 1.08
95, -14390.77, -13307.54, -12378.89, -14060.34, -18735.25, -17961.53, -137973.94, -102003.95, 0.00, 0.00, 0.00
96, -14386.36, -13303.71, -12375.15, -14056.18, -18733.82, -17938.79, -137972.78, -102002.80, 0.00, 0.00, 0.00
97, -14383.48, -13301.17, -12372.83, -14053.48, -18733.53, -17947.60, -137972.86, -102003.12, 0.00, 0.00, 0.00
98, -14383.44, -13301.17, -12373.12, -14053.41, -18735.90, -17973.48, -137975.59, -102006.05, 0.00, 0.00, 0.00
99, -14381.65, -13299.65, -12372.03, -14051.94, -18736.88, -17969.15, -137976.91, -102007.41, 0.00, 0.00, 0.00
100, -14376.69, -13295.33, -12367.76, -14047.45, -18734.83, -17943.11, -137975.17, -102005.69, 0.00, 0.00, 0.00
101, -14373.45, -13292.34, -12365.07, -14044.43, -18734.25, -17945.03, -137974.98, -102005.53, 0.00, 0.00, 0.00
102, -14372.60, -13291.58, -12364.58, -14043.58, -18735.70, -17970.73, -137976.91, -102007.63, 0.00, 0.00, 0.00
103, -14368.55, -13287.96, -12361.16, -14039.78, -18734.36, -17970.73, -137975.89, -102006.70, 0.00, 0.00, 0.00
104, -14362.07, -13282.17, -12355.57, -14033.86, -18731.01, -17943.80, -137972.78, -102003.57, -0.01, -0.01, 1.08
105, -14358.09, -13278.50, -12352.18, -14030.17, -18729.73, -17939.26, -137971.75, -102002.67, 0.00, 0.00, 0.00
106, -14356.44, -13276.94, -12350.88, -14028.49, -18730.34, -17963.76, -137972.83, -102004.04, 0.00, 0.00, 0.00
107, -14357.13, -13277.94, -12352.13, -14029.30, -18733.62, -17974.33, -137976.55, -102007.70, 0.00, 0.00, 0.00
108, -14351.94, -13273.36, -12347.66, -14024.47, -18731.41, -17948.94, -137974.45, -102005.52, 0.00, 0.00, 0.00
109, -14345.82, -13267.53, -12341.98, -14018.57, -18727.95, -17935.98, -137971.19, -102002.27, 0.00, 0.00, 0.00
110, -14345.64, -13267.32, -12342.28, -14018.52, -18730.18, -17959.78, -137973.78, -102004.95, 0.00, 0.00, 0.00
111, -14344.08, -13266.07, -12341.38, -14017.14, -18731.32, -17974.29, -137975.28, -102006.45, 0.00, 0.00, 0.00
112, -14339.09, -13261.71, -12337.09, -14012.53, -18729.33, -17953.28, -137973.45, -102004.57, 0.00, 0.00, 0.00
113, -14334.26, -13257.31, -12333.02, -14008.06, -18727.27, -17936.63, -137971.72, -102002.77, 0.00, 0.00, 0.00
114, -14334.55, -13257.65, -12333.56, -14008.33, -18729.80, -17957.10, -137974.67, -102005.78, -0.01, -0.01, 1.08
115, -14334.51, -13257.71, -12333.96, -14008.40, -18732.24, -17977.48, -137977.33, -102008.66, 0.00, 0.00, 0.00
116, -14329.35, -13253.22, -12329.60, -14003.64, -18730.05, -17959.54, -137975.34, -102006.56, 0.00, 0.00, 0.00
117, -14320.85, -13245.42, -12321.89, -13995.61, -18724.64, -17934.64, -137970.05, -102001.22, 0.00, 0.00, 0.00
118, -14319.58, -13244.32, -12321.15, -13994.52, -18725.84, -17948.94, -137971.61, -102002.95, 0.00, 0.00, 0.00
119, -14320.05, -13244.84, -12322.02, -13994.96, -18728.66, -17973.62, -137974.83, -102006.18, 0.00, 0.00, 0.00
120, -14316.56, -13241.87, -12319.32, -13991.90, -18728.10, -17963.69, -137974.50, -102005.73, 0.00, 0.00, 0.00
121, -14309.16, -13235.16, -12312.70, -13984.99, -18723.68, -17937.30, -137970.27, -102001.38, 0.00, 0.00, 0.00
122, -14306.93, -13233.24, -12311.03, -13982.89, -18723.97, -17945.14, -137970.88, -102002.23, 0.00, 0.00, 0.00
123, -14308.49, -13234.78, -12313.04, -13984.57, -18727.88, -17973.02, -137975.17, -102006.72, 0.00, 0.00, 0.00
124, -14307.02, -13233.60, -12312.10, -13983.25, -18729.22, -17970.11, -137976.67, -102008.28, -0.01, -0.01, 1.08
125, -14301.90, -13229.04, -12307.61, -13978.38, -18727.01, -17943.96, -137974.72, -102006.18, 0.00, 0.00, 0.00
126, -14298.72, -13226.11, -12305.01, -13975.41, -18726.43, -17944.74, -137974.39, -102005.89, 0.00, 0.00, 0.00
127, -14297.27, -13224.77, -12304.01, -13974.02, -18727.27, -17970.38, -137975.69, -102007.48, 0.00, 0.00, 0.00
128, -14296.22, -13224.03, -12303.47, -13973.15, -18728.86, -17975.36, -137977.47, -102009.31, 0.00, 0.00, 0.00
129, -14289.16, -13217.41, -12297.13, -13966.46, -18724.75, -17947.64, -137973.63, -102005.24, 0.00, 0.00, 0.00
130, -14281.74, -13210.46, -12290.42, -13959.42, -18720.17, -17937.81, -137969.31, -102000.84, 0.00, 0.00, 0.00
131, -14277.78, -13206.73, -12286.93, -13955.53, -18718.60, -17959.22, -137968.02, -101999.81, 0.00, 0.00, 0.00
132, -14277.78, -13206.91, -12287.36, -13955.51, -18721.13, -17970.31, -137970.91, -102002.83, 0.00, 0.00, 0.00
133, -14270.52, -13200.18, -12280.83, -13948.74, -18716.90, -17944.00, -137966.77, -101998.54, 0.00, 0.00, 0.00
134, -14266.98, -13197.07, -12277.95, -13945.52, -18716.10, -17932.07, -137966.27, -101998.02, -0.01, -0.01, 1.08
135, -14266.42, -13196.74, -12277.99, -13945.16, -18718.00, -17954.87, -137968.55, -102000.41, 0.00, 0.00, 0.00
136, -14264.39, -13194.86, -12276.43, -13943.17, -18718.45, -17970.47, -137969.36, -102001.24, 0.00, 0.00, 0.00
137, -14259.45, -13190.48, -12272.16, -13938.73, -18716.50, -17950.17, -137967.61, -101999.45, 0.00, 0.00, 0.00
138, -14252.72, -13184.18, -12266.12, -13932.22, -18712.63, -17930.12, -137963.92, -101995.66, 0.00, 0.00, 0.00
139, -14251.67, -13183.28, -12265.56, -13931.31, -18714.04, -17947.98, -137965.63, -101997.51, 0.00, 0.00, 0.00
140, -14251.45, -13183.30, -12265.85, -13931.10, -18716.23, -17969.06, -137968.13, -102000.26, 0.00, 0.00, 0.00
141, -14246.06, -13178.34, -12261.21, -13926.01, -18713.71, -17952.81, -137965.80, -101997.94, 0.00, 0.00, 0.00
142, -14240.77, -13173.65, -12256.67, -13921.14, -18711.34, -17930.19, -137963.59, -101995.66, 0.00, 0.00, 0.00
143, -14238.89, -13171.97, -12255.21, -13919.35, -18711.83, -17942.33, -137964.48, -101996.70, 0.00, 0.00, 0.00
144, -14240.50, -13173.69, -12257.29, -13921.09, -18715.92, -17969.15, -137968.94, -102001.27, -0.01, -0.01, 1.08
145, -14237.28, -13170.97, -12254.72, -13918.18, -18715.63, -17960.65, -137968.80, -102001.09, 0.00, 0.00, 0.00
146, -14229.37, -13163.52, -12247.48, -13910.56, -18710.60, -17932.67, -137963.88, -101996.08, 0.00, 0.00, 0.00
147, -14229.68, -13164.13, -12248.44, -13911.10, -18713.55, -17940.89, -137967.28, -101999.50, 0.00, 0.00, 0.00
148, -14231.82, -13166.41, -12251.01, -13913.31, -18718.11, -17968.95, -137972.11, -102004.59, 0.00, 0.00, 0.00
149, -14227.71, -13162.61, -12247.59, -13909.42, -18716.81, -17965.73, -137970.98, -102003.45, 0.00, 0.00, 0.00
150, -14224.07, -13159.63, -12244.73, -13906.20, -18716.12, -17940.87, -137970.47, -102002.88, 0.00, 0.00, 0.00
151, -14220.92, -13156.93, -12242.25, -13903.32, -18715.63, -17939.89, -137970.25, -102002.70, 0.00, 0.00, 0.00
152, -14223.24, -13159.37, -12244.98, -13905.74, -18720.28, -17969.17, -137975.39, -102007.99, 0.00, 0.00, 0.00
153, -14221.97, -13158.27, -12244.15, -13904.68, -18721.53, -17974.94, -137976.95, -102009.67, 0.00, 0.00, 0.00
154, -14215.26, -13152.08, -12238.27, -13898.40, -18717.89, -17947.98, -137973.38, -102005.96, -0.01, -0.02, 1.08
155, -14209.56, -13146.87, -12233.24, -13892.95, -18714.82, -17938.26, -137970.66, -102003.23, 0.00, 0.00, 0.00
156, -14209.27, -13146.74, -12233.36, -13892.73, -18716.84, -17962.42, -137973.00, -102005.83, 0.00, 0.00, 0.00
157, -14208.15, -13145.82, -12232.68, -13891.74, -18718.40, -17974.47, -137974.88, -102007.75, 0.00, 0.00, 0.00
158, -14202.43, -13140.57, -12227.66, -13886.45, -18715.56, -17950.62, -137972.22, -102005.02, 0.00, 0.00, 0.00
159, -14198.43, -13137.04, -12224.37, -13882.69, -18714.36, -17937.07, -137971.22, -102004.02, 0.00, 0.00, 0.00
160, -14197.74, -13136.43, -12224.15, -13882.09, -18715.99, -17958.89, -137973.36, -102006.23, 0.00, 0.00, 0.00
161, -14197.47, -13136.34, -12224.37, -13881.86, -18718.20, -17977.11, -137975.81, -102008.93, 0.00, 0.00, 0.00
162, -14194.09, -13133.42, -12221.64, -13878.87, -18717.60, -17959.16, -137975.45, -102008.42, 0.00, 0.00, 0.00
163, -14187.79, -13127.74, -12216.03, -13872.97, -18714.20, -17938.32, -137972.31, -102005.18, 0.00, 0.00, 0.00
164, -14186.63, -13126.71, -12215.32, -13871.80, -18715.45, -17954.62, -137973.94, -102006.92, 0.00, 0.00, 0.00
165, -14188.60, -13128.77, -12217.80, -13873.86, -18719.85, -17979.05, -137978.56, -102011.95, -0.02, -0.01, 1.09
166, -14183.32, -13123.94, -12213.24, -13868.94, -18717.46, -17964.25, -137976.39, -102009.70, 0.00, 0.00, 0.00
167, -14175.88, -13117.10, -12206.49, -13861.84, -18712.81, -17938.66, -137972.03, -102005.24, 0.00, 0.00, 0.00
168, -14174.40, -13115.85, -12205.42, -13860.45, -18713.80, -17950.08, -137973.38, -102006.67, 0.00, 0.00, 0.00
169, -14176.19, -13117.75, -12207.61, -13862.31, -18717.93, -17977.40, -137977.78, -102011.34, 0.00, 0.00, 0.00
170, -14174.94, -13116.90, -12207.09, -13861.39, -18719.45, -17972.46, -137979.69, -102013.18, 0.00, 0.00, 0.00
171, -14166.56, -13109.19, -12199.58, -13853.41, -18714.11, -17943.42, -137974.55, -102007.93, 0.00, 0.00, 0.00
172, -14160.88, -13103.82, -12194.49, -13847.93, -18711.03, -17943.82, -137971.69, -102005.22, 0.00, 0.00, 0.00
173, -14161.04, -13104.09, -12194.98, -13848.04, -18713.44, -17970.62, -137974.44, -102008.17, 0.00, 0.00, 0.00
174, -14160.14, -13103.51, -12194.69, -13847.33, -18715.25, -17972.46, -137976.47, -102010.27, 0.00, 0.00, 0.00
175, -14153.88, -13097.88, -12189.25, -13841.59, -18712.03, -17945.46, -137973.47, -102007.14, -0.02, -0.01, 1.09
176, -14151.81, -13096.20, -12187.78, -13839.86, -18712.57, -17944.11, -137974.30, -102007.95, 0.00, 0.00, 0.00
177, -14151.18, -13095.73, -12187.67, -13839.42, -18714.31, -17970.04, -137976.44, -102010.36, 0.00, 0.00, 0.00
178, -14147.29, -13092.13, -12184.29, -13835.64, -18713.04, -17975.12, -137975.45, -102009.45, 0.00, 0.00, 0.00
179, -14143.02, -13088.38, -12180.74, -13831.75, -18711.74, -17950.48, -137974.23, -102008.13, 0.00, 0.00, 0.00
180, -14140.85, -13086.45, -12179.17, -13829.72, -18712.19, -17941.72, -137974.94, -102008.80, 0.00, 0.00, 0.00
181, -14137.99, -13083.66, -12176.76, -13826.90, -18711.70, -17963.36, -137974.88, -102009.05, 0.00, 0.00, 0.00
182, -14134.66, -13080.64, -12173.99, -13823.75, -18710.94, -17974.96, -137974.44, -102008.80, 0.00, 0.00, 0.00
183, -14131.04, -13077.67, -12171.17, -13820.51, -18710.26, -17953.97, -137974.00, -102008.30, 0.00, 0.00, 0.00
184, -14125.43, -13072.42, -12166.14, -13815.28, -18707.40, -17937.54, -137971.45, -102005.71, 0.00, 0.00, 0.00
185, -14125.61, -13072.82, -12166.95, -13815.63, -18710.06, -17959.20, -137974.55, -102009.05, -0.02, -0.01, 1.09
186, -14123.11, -13070.56, -12165.03, -13813.18, -18710.06, -17976.72, -137974.88, -102009.49, 0.00, 0.00, 0.00
187, -14113.92, -13062.00, -12156.64, -13804.41, -18703.76, -17954.33, -137968.75, -102003.39, 0.00, 0.00, 0.00
188, -14103.48, -13051.94, -12146.79, -13794.31, -18696.18, -17927.98, -137961.31, -101995.95, 0.00, 0.00, 0.00
189, -14103.91, -13052.55, -12147.64, -13794.83, -18698.98, -17944.76, -137964.63, -101999.21, 0.00, 0.00, 0.00
190, -14105.54, -13054.40, -12149.67, -13796.48, -18703.02, -17969.80, -137969.09, -102003.84, 0.00, 0.00, 0.00
191, -14102.77, -13052.08, -12147.66, -13794.07, -18703.09, -17959.04, -137969.45, -102004.13, 0.00, 0.00, 0.00
192, -14097.76, -13047.63, -12143.34, -13789.42, -18700.97, -17935.51, -137967.48, -102002.23, 0.00, 0.00, 0.00
193, -14095.21, -13045.42, -12141.38, -13787.05, -18700.99, -17944.11, -137967.80, -102002.61, 0.00, 0.00, 0.00
194, -14095.55, -13045.84, -12142.09, -13787.47, -18703.74, -17970.51, -137970.98, -102005.91, 0.00, 0.00, 0.00
195, -14094.92, -13045.62, -12142.12, -13787.20, -18705.86, -17967.67, -137973.31, -102008.27, -0.02, -0.01, 1.09
196, -14087.70, -13038.93, -12135.63, -13780.27, -18701.62, -17938.93, -137969.14, -102004.06, 0.00, 0.00, 0.00
197, -14085.87, -13037.30, -12134.27, -13778.53, -18702.26, -17941.72, -137970.14, -102005.09, 0.00, 0.00, 0.00
198, -14086.20, -13037.75, -12135.05, -13778.98, -18704.86, -17968.77, -137973.20, -102008.38, 0.00, 0.00, 0.00
199, -14082.98, -13034.91, -12132.46, -13776.03, -18704.41, -17970.13, -137972.89, -102008.15, 0.00, 0.00, 0.00
200, -14077.24, -13029.90, -12127.61, -13770.73, -18701.68, -17944.03, -137970.31, -102005.55, 0.00, 0.00, 0.00
201, -14071.52, -13024.54, -12122.47, -13765.19, -18698.46, -17936.98, -137967.53, -102002.77, 0.00, 0.00, 0.00
202, -14070.58, -13023.62, -12121.93, -13764.29, -18699.85, -17961.95, -137969.22, -102004.62, 0.00, 0.00, 0.00
203, -14068.25, -13021.63, -12120.12, -13762.10, -18700.12, -17970.06, -137969.77, -102005.22, 0.00, 0.00, 0.00
204, -14063.96, -13017.88, -12116.63, -13758.19, -18698.91, -17945.79, -137968.63, -102003.99, 0.00, 0.00, 0.00
205, -14060.66, -13015.06, -12114.06, -13755.31, -18698.44, -17935.20, -137968.44, -102003.68, -0.02, -0.01, 1.09
206, -14060.95, -13015.42, -12114.65, -13755.58, -18700.99, -17959.25, -137971.28, -102006.79, 0.00, 0.00, 0.00
207, -14059.74, -13014.44, -12114.02, -13754.55, -18702.31, -17974.18, -137972.89, -102008.48, 0.00, 0.00, 0.00
208, -14054.80, -13010.06, -12109.88, -13750.12, -18700.45, -17953.35, -137971.08, -102006.56, 0.00, 0.00, 0.00
209, -14049.39, -13005.27, -12105.15, -13745.03, -18697.93, -17935.66, -137968.80, -102004.22, 0.00, 0.00, 0.00
210, -14046.71, -13002.66, -12102.84, -13742.39, -18697.48, -17952.90, -137968.73, -102004.28, 0.00, 0.00, 0.00
211, -14044.83, -13000.85, -12101.46, -13740.56, -18698.04, -17971.70, -137969.53, -102005.22, 0.00, 0.00, 0.00
212, -14040.05, -12996.67, -12097.46, -13736.08, -18696.16, -17954.46, -137967.97, -102003.57, 0.00, 0.00, 0.00
213, -14036.16, -12993.25, -12094.33, -13732.46, -18695.15, -17933.61, -137967.09, -102002.67, 0.00, 0.00, 0.00
214, -14034.37, -12991.68, -12093.10, -13730.83, -18695.83, -17946.84, -137968.16, -102003.97, 0.00, 0.00, 0.00
215, -14035.75, -12993.22, -12094.95, -13732.38, -18699.54, -17972.75, -137972.33, -102008.38, -0.01, -0.01, 1.09
216, -14033.18, -12991.19, -12093.14, -13730.14, -18699.89, -17964.30, -137972.91, -102008.91, 0.00, 0.00, 0.00
217, -14026.34, -12984.84, -12087.06, -13723.57, -18696.03, -17937.88, -137969.25, -102005.13, 0.00, 0.00, 0.00
218, -14023.93, -12982.61, -12085.14, -13721.38, -18696.12, -17944.81, -137969.67, -102005.76, 0.00, 0.00, 0.00
219, -14023.53, -12982.29, -12085.23, -13721.09, -18698.04, -17970.49, -137971.97, -102008.38, 0.00, 0.00, 0.00
220, -14020.56, -12979.81, -12083.08, -13718.32, -18697.88, -17966.64, -137972.11, -102008.48, 0.00, 0.00, 0.00
221, -14013.69, -12973.51, -12076.83, -13711.88, -18693.90, -17938.57, -137968.38, -102004.66, 0.00, 0.00, 0.00
222, -14012.33, -12972.39, -12076.00, -13710.65, -18695.02, -17940.40, -137969.78, -102006.20, 0.00, 0.00, 0.00
223, -14011.66, -12971.77, -12075.73, -13709.96, -18696.61, -17966.49, -137971.69, -102008.35, 0.00, 0.00, 0.00
224, -14007.86, -12968.37, -12072.45, -13706.36, -18695.49, -17969.17, -137970.78, -102007.52, 0.00, 0.00, 0.00
225, -14002.34, -12963.47, -12067.80, -13701.22, -18692.94, -17943.04, -137968.48, -102004.95, -0.02, -0.01, 1.08
226, -13998.14, -12959.70, -12064.22, -13697.28, -18691.47, -17935.84, -137967.23, -102003.63, 0.00, 0.00, 0.00
227, -13998.32, -12960.03, -12064.82, -13697.57, -18693.97, -17961.44, -137970.16, -102006.74, 0.00, 0.00, 0.00
228, -13996.04, -12958.02, -12063.06, -13695.43, -18694.26, -17970.62, -137970.58, -102007.46, 0.00, 0.00, 0.00
229, -13988.41, -12950.91, -12056.24, -13688.30, -18689.61, -17943.91, -137966.08, -102002.79, 0.00, 0.00, 0.00
230, -13983.81, -12946.84, -12052.35, -13684.03, -18687.82, -17930.61, -137964.55, -102001.16, 0.00, 0.00, 0.00
231, -13983.68, -12946.91, -12052.71, -13683.98, -18690.13, -17953.57, -137967.23, -102004.02, 0.00, 0.00, 0.00
232, -13981.91, -12945.30, -12051.55, -13682.44, -18690.91, -17969.93, -137968.31, -102005.29, 0.00, 0.00, 0.00
233, -13977.15, -12941.06, -12047.46, -13678.02, -18689.01, -17949.99, -137966.61, -102003.50, 0.00, 0.00, 0.00
234, -13970.78, -12935.22, -12041.82, -13671.94, -18685.43, -17930.05, -137963.30, -102000.20, 0.00, 0.00, 0.00
235, -13971.45, -12935.96, -12042.94, -13672.63, -18688.47, -17949.17, -137966.63, -102003.66, -0.02, -0.01, 1.08
236, -13973.04, -12937.66, -12044.97, -13674.22, -18692.41, -17972.23, -137970.88, -102008.22, 0.00, 0.00, 0.00
237, -13966.80, -12931.87, -12039.52, -13668.38, -18689.03, -17955.36, -137967.72, -102005.00, 0.00, 0.00, 0.00
238, -13960.76, -12926.39, -12034.27, -13662.75, -18685.88, -17931.62, -137964.75, -102001.94, 0.00, 0.00, 0.00
239, -13956.18, -12922.08, -12030.25, -13658.26, -18683.80, -17940.83, -137963.05, -102000.33, 0.00, 0.00, 0.00
240, -13959.16, -12925.21, -12033.64, -13661.25, -18689.12, -17969.26, -137968.75, -102006.20, 0.00, 0.00, 0.00
241, -13957.79, -12924.27, -12032.93, -13660.09, -18690.53, -17963.07, -137970.31, -102007.70, 0.00, 0.00, 0.00
242, -13950.10, -12917.09, -12026.00, -13652.94, -18685.81, -17935.13, -137966.00, -102003.21, 0.00, 0.00, 0.00
243, -13946.44, -12913.81, -12022.91, -13649.54, -18684.74, -17939.04, -137965.27, -102002.56, 0.00, 0.00, 0.00
244, -13943.93, -12911.51, -12020.97, -13647.06, -18684.65, -17962.58, -137965.33, -102002.95, 0.00, 0.00, 0.00
245, -13941.61, -12909.56, -12019.25, -13644.93, -18685.01, -17961.55, -137966.00, -102003.57, -0.02, -0.01, 1.08
246, -13936.13, -12904.60, -12014.60, -13639.84, -18682.46, -17935.02, -137963.61, -102001.04, 0.00, 0.00, 0.00
247, -13934.17, -12902.92, -12013.30, -13638.16, -18683.13, -17934.79, -137964.55, -102002.12, 0.00, 0.00, 0.00
248, -13934.32, -12903.21, -12013.86, -13638.41, -18685.52, -17962.13, -137967.45, -102005.18, 0.00, 0.00, 0.00
249, -13933.09, -12902.30, -12013.17, -13637.29, -18687.00, -17968.70, -137969.14, -102006.85, 0.00, 0.00, 0.00
250, -13928.85, -12898.63, -12009.70, -13633.49, -18685.77, -17943.94, -137968.02, -102005.69, 0.00, 0.00, 0.00
251, -13923.13, -12893.38, -12004.65, -13628.17, -18682.75, -17933.43, -137965.36, -102003.01, 0.00, 0.00, 0.00
252, -13923.30, -12893.76, -12005.41, -13628.35, -18685.34, -17957.93, -137968.19, -102006.02, 0.00, 0.00, 0.00
253, -13921.11, -12891.75, -12003.80, -13626.27, -18685.54, -17969.28, -137968.81, -102006.70, 0.00, 0.00, 0.00
254, -13914.47, -12885.62, -11997.88, -13619.95, -18681.77, -17944.63, -137965.27, -102003.05, 0.00, 0.00, 0.00
255, -13910.07, -12881.69, -11994.06, -13615.81, -18680.18, -17930.10, -137963.81, -102001.65, -0.01, -0.01, 1.08
0, -13909.00, -12880.91, -11993.54, -13614.92, -18681.61, -17951.54, -137965.44, -102003.57, 0.00, 0.00, 0.00
1, -13909.16, -12881.27, -11994.19, -13615.14, -18684.25, -17970.67, -137968.38, -102006.66, 0.00, 0.00, 0.00
2, -13902.34, -12875.01, -11988.20, -13608.77, -18680.38, -17949.61, -137964.78, -102002.80, 0.00, 0.00, 0.00
3, -13899.88, -12873.20, -11986.57, -13606.76, -18680.71, -17932.00, -137965.33, -102003.45, 0.00, 0.00, 0.00
4, -13896.73, -12870.20, -11984.00, -13603.70, -18679.96, -17945.75, -137964.94, -102003.21, 0.00, 0.00, 0.00
5, -13896.95, -12870.56, -11984.65, -13603.96, -18682.57, -17968.75, -137967.95, -102006.36, 0.00, 0.00, 0.00
6, -13894.22, -12868.23, -11982.57, -13601.53, -18682.62, -17956.83, -137968.19, -102006.63, 0.00, 0.00, 0.00
7, -13888.84, -12863.36, -11977.94, -13596.59, -18680.27, -17933.09, -137965.94, -102004.22, 0.00, 0.00, 0.00
8, -13887.00, -12861.86, -11976.67, -13594.96, -18680.98, -17943.82, -137966.94, -102005.36, 0.00, 0.00, 0.00
9, -13888.23, -12863.16, -11978.34, -13596.21, -18684.58, -17970.67, -137970.83, -102009.40, -0.02, -0.01, 1.09
10, -13885.42, -12860.86, -11976.24, -13593.66, -18684.54, -17964.52, -137971.03, -102009.60, 0.00, 0.00, 0.00
11, -13878.51, -12854.49, -11970.05, -13587.16, -18680.51, -17936.69, -137967.14, -102005.63, 0.00, 0.00, 0.00
12, -13875.43, -12851.76, -11967.48, -13584.16, -18679.91, -17939.11, -137966.86, -102005.38, 0.00, 0.00, 0.00
13, -13875.92, -12852.32, -11968.49, -13584.74, -18682.73, -17966.20, -137969.95, -102008.75, 0.00, 0.00, 0.00
14, -13875.31, -12851.89, -11968.42, -13584.27, -18684.76, -17968.37, -137972.23, -102011.10, 0.00, 0.00, 0.00
15, -13867.07, -12844.14, -11961.02, -13576.47, -18679.42, -17939.24, -137967.05, -102005.85, 0.00, 0.00, 0.00
16, -13862.93, -12840.50, -11957.58, -13572.67, -18677.94, -17935.46, -137965.84, -102004.69, 0.00, 0.00, 0.00
17, -13864.67, -12842.42, -11959.64, -13574.37, -18682.01, -17963.34, -137970.31, -102009.29, 0.00, 0.00, 0.00
18, -13861.86, -12839.83, -11957.36, -13571.62, -18681.74, -17969.88, -137970.41, -102009.42, 0.00, 0.00, 0.00
19, -13855.11, -12833.68, -11951.46, -13565.30, -18677.94, -17943.15, -137966.72, -102005.78, -0.02, -0.01, 1.08
20, -13851.60, -12830.57, -11948.62, -13562.12, -18677.21, -17933.05, -137966.11, -102005.20, 0.00, 0.00, 0.00
21, -13851.17, -12830.21, -11948.62, -13561.74, -18679.04, -17956.70, -137968.33, -102007.59, 0.00, 0.00, 0.00
22, -13850.39, -12829.68, -11948.39, -13561.05, -18680.74, -17971.07, -137970.31, -102009.71, 0.00, 0.00, 0.00
23, -13845.03, -12824.98, -11943.81, -13556.18, -18678.32, -17948.58, -137968.08, -102007.32, 0.00, 0.00, 0.00
24, -13838.99, -12819.55, -11938.63, -13550.48, -18675.08, -17931.48, -137965.13, -102004.38, 0.00, 0.00, 0.00
25, -13839.75, -12820.38, -11939.81, -13551.24, -18678.19, -17952.94, -137968.58, -102008.06, 0.00, 0.00, 0.00
26, -13840.33, -12821.16, -11940.91, -13551.97, -18681.28, -17973.60, -137972.00, -102011.66, 0.00, 0.00, 0.00
27, -13835.48, -12816.94, -11936.88, -13547.46, -18679.22, -17955.74, -137970.31, -102009.83, 0.00, 0.00, 0.00
28, -13831.06, -12813.05, -11933.17, -13543.32, -18677.61, -17934.95, -137968.84, -102008.28, 0.00, 0.00, 0.00
29, -13828.11, -12810.16, -11930.62, -13540.44, -18676.98, -17947.80, -137968.50, -102008.06, -0.01, -0.01, 1.08
30, -13824.62, -12806.70, -11927.54, -13537.02, -18675.87, -17967.96, -137967.72, -102007.37, 0.00, 0.00, 0.00
31, -13820.64, -12803.08, -11924.23, -13533.35, -18674.61, -17956.47, -137966.67, -102006.32, 0.00, 0.00, 0.00
32, -13817.38, -12800.44, -11921.75, -13530.61, -18674.30, -17934.37, -137966.52, -102006.14, 0.00, 0.00, 0.00
33, -13816.04, -12799.39, -11921.01, -13529.44, -18675.48, -17943.51, -137967.86, -102007.73, 0.00, 0.00, 0.00
34, -13814.99, -12798.41, -11920.36, -13528.26, -18676.78, -17968.43, -137969.47, -102009.54, 0.00, 0.00, 0.00
35, -13809.96, -12793.76, -11916.07, -13523.50, -18674.52, -17961.59, -137967.53, -102007.48, 0.00, 0.00, 0.00
36, -13802.29, -12786.74, -11909.28, -13516.26, -18669.76, -17932.49, -137962.86, -102002.83, 0.00, 0.00, 0.00
37, -13803.59, -12788.33, -11911.11, -13517.82, -18673.68, -17937.86, -137967.13, -102007.08, 0.00, 0.00, 0.00
38, -13804.97, -12789.85, -11913.05, -13519.25, -18677.38, -17965.93, -137971.22, -102011.44, 0.00, 0.00, 0.00
39, -13802.16, -12787.37, -11910.82, -13516.52, -18677.12, -17968.05, -137971.25, -102011.62, -0.01, -0.01, 1.08
40, -13796.08, -12781.91, -11905.66, -13510.98, -18674.12, -17941.48, -137968.48, -102008.69, 0.00, 0.00, 0.00
41, -13790.60, -12776.88, -11900.83, -13505.79, -18671.33, -17934.44, -137965.98, -102006.23, 0.00, 0.00, 0.00
42, -13792.30, -12778.78, -11902.93, -13507.45, -18675.31, -17962.11, -137970.25, -102010.88, 0.00, 0.00, 0.00
43, -13790.56, -12777.22, -11901.68, -13505.75, -18676.02, -17971.05, -137971.33, -102012.06, 0.00, 0.00, 0.00
44, -13780.30, -12767.52, -11892.20, -13495.78, -18668.56, -17940.94, -137964.14, -102004.80, 0.00, 0.00, 0.00
45, -13773.46, -12761.15, -11886.05, -13489.34, -18664.49, -17926.34, -137960.34, -102001.00, 0.00, 0.00, 0.00
46, -13772.45, -12760.25, -11885.47, -13488.43, -18665.92, -17948.81, -137962.06, -102002.90, 0.00, 0.00, 0.00
47, -13771.60, -12759.74, -11885.23, -13487.74, -18667.48, -17964.74, -137964.06, -102004.98, 0.00, 0.00, 0.00
