%OpenBCI Raw EEG Data
%
%Sample Rate = 250.0 Hz
%First Column = SampleIndex
%Other Columns = EEG data in microvolts with optional columns at end being unscaled Aux data
0, 17430.63, -4973.75, 32206.47, 16076.00, -187500.02, -112950.94, -28339.42, 129179.02, 0.00, 0.00, 0.00, 0.00, 0.00, 0.00, 0.00, 0.00, 0
1, 17436.51, -4987.81, 32206.27, 16067.30, -187500.02, -112998.93, -28345.50, 129196.79, 0.00, 0.00, 0.00, 0.00, 0.00, 0.00, 0.00, 0.00, 0
2, 17433.06, -5014.77, 32196.10, 16045.85, -187500.02, -113061.47, -28360.70, 129203.38, 0.00, 0.00, 0.00, 0.00, 0.00, 0.00, 0.00, 0.00, 0
3, 17455.06, -5016.27, 32210.38, 16049.47, -187500.02, -113100.92, -28354.68, 129232.75, 0.00, 0.00, 0.00, 0.00, 0.00, 0.00, 0.00, 0.00, 0
4, 17488.25, -5000.44, 32237.70, 16069.65, -187500.02, -113124.68, -28338.28, 129277.01, 0.00, 0.00, 0.00, 0.00, 0.00, 0.00, 0.00, 0.00, 0
5, 17497.75, -5006.50, 32242.61, 16067.08, -187500.02, -113169.72, -28342.14, 129300.08, 0.00, 0.00, 0.00, 0.00, 0.00, 0.00, 0.00, 0.00, 0
6, 17492.27, -5032.36, 32230.50, 16043.43, -187500.02, -113233.82, -28359.42, 129307.81, 0.00, 0.00, 0.00, 0.00, 0.00, 0.00, 0.00, 0.00, 0
7, 17507.16, -5037.19, 32238.23, 16040.82, -187500.02, -113278.46, -28359.76, 129332.17, 0.00, 0.00, 0.00, 0.00, 0.00, 0.00, 0.00, 0.00, 0
8, 17541.60, -5022.19, 32266.04, 16061.47, -187500.02, -113303.00, -28343.91, 129372.97, 0.00, 0.00, 0.00, 0.00, 0.00, 0.00, 0.00, 0.00, 0
9, 17557.88, -5024.96, 32274.55, 16065.05, -187500.02, -113343.10, -28341.01, 129400.03, 0.00, 0.00, 0.00, 0.00, 0.00, 0.00, 0.00, 0.00, 0
10, 17553.25, -5051.49, 32262.04, 16043.01, -187500.02, -113407.18, -28356.07, 129407.39, 0.00, 0.00, 0.00, 0.00, 0.00, 0.00, 0.00, 0.00, 0
11, 17564.63, -5065.58, 32265.81, 16034.78, -187500.02, -113458.26, -28358.42, 129428.02, 0.00, 0.00, 0.00, 0.00, 0.00, 0.00, 0.00, 0.00, 0
12, 17598.69, -5051.70, 32293.38, 16053.36, -187500.02, -113484.14, -28341.81, 129468.81, 0.00, 0.00, 0.00, 0.00, 0.00, 0.00, 0.00, 0.00, 0
13, 17620.91, -5048.23, 32308.57, 16061.27, -187500.02, -113520.05, -28335.75, 129499.90, 0.00, 0.00, 0.00, 0.00, 0.00, 0.00, 0.00, 0.00, 0
14, 17617.44, -5071.43, 32298.94, 16042.38, -187500.02, -113580.54, -28353.43, 129506.72, 0.00, 0.00, 0.00, 0.00, 0.00, 0.00, 0.00, 0.00, 0
15, 17624.17, -5085.65, 32297.71, 16030.42, -187500.02, -113633.83, -28362.73, 129521.38, 0.00, 0.00, 0.00, 0.00, 0.00, 0.00, 0.00, 0.00, 0
16, 17658.03, -5074.00, 32323.68, 16046.81, -187500.02, -113659.84, -28348.56, 129561.84, 0.00, 0.00, 0.00, 0.00, 0.00, 0.00, 0.00, 0.00, 0
17, 17683.87, -5066.13, 32343.73, 16061.36, -187500.02, -113690.55, -28339.22, 129596.77, 0.00, 0.00, 0.00, 0.00, 0.00, 0.00, 0.00, 0.00, 0
18, 17683.54, -5086.05, 32335.89, 16045.18, -187500.02, -113749.68, -28351.98, 129605.83, 0.00, 0.00, 0.00, 0.00, 0.00, 0.00, 0.00, 0.00, 0
19, 17683.27, -5105.63, 32329.54, 16026.71, -187500.02, -113808.64, -28362.91, 129616.78, 0.00, 0.00, 0.00, 0.00, 0.00, 0.00, 0.00, 0.00, 0
20, 17710.70, -5096.33, 32348.90, 16038.31, -187500.02, -113841.25, -28352.70, 129652.38, 0.00, 0.00, 0.00, 0.00, 0.00, 0.00, 0.00, 0.00, 0
21, 17741.27, -5085.07, 32371.25, 16054.34, -187500.02, -113870.22, -28340.69, 129689.71, 0.00, 0.00, 0.00, 0.00, 0.00, 0.00, 0.00, 0.00, 0
22, 17744.89, -5102.43, 32366.64, 16042.99, -187500.02, -113926.14, -28348.87, 129704.22, 0.00, 0.00, 0.00, 0.00, 0.00, 0.00, 0.00, 0.00, 0
23, 17743.06, -5126.64, 32356.18, 16022.83, -187500.02, -113989.67, -28362.51, 129712.82, 0.00, 0.00, 0.00, 0.00, 0.00, 0.00, 0.00, 0.00, 0
24, 17767.20, -5124.07, 32372.21, 16031.14, -187500.02, -114026.15, -28353.79, 129745.32, 0.00, 0.00, 0.00, 0.00, 0.00, 0.00, 0.00, 0.00, 0
25, 17799.68, -5108.51, 32397.24, 16050.34, -187500.02, -114049.82, -28340.18, 129786.00, 0.00, 0.00, 0.00, 0.00, 0.00, 0.00, 0.00, 0.00, 0
26, 17808.91, -5118.97, 32398.83, 16043.84, -187500.02, -114098.30, -28347.76, 129803.46, 0.00, 0.00, 0.00, 0.00, 0.00, 0.00, 0.00, 0.00, 0
27, 17803.70, -5146.40, 32388.04, 16022.53, -187500.02, -114160.81, -28364.25, 129808.94, 0.00, 0.00, 0.00, 0.00, 0.00, 0.00, 0.00, 0.00, 0
28, 17822.92, -5148.32, 32399.43, 16024.61, -187500.02, -114201.23, -28360.83, 129835.55, 0.00, 0.00, 0.00, 0.00, 0.00, 0.00, 0.00, 0.00, 0
29, 17856.92, -5132.00, 32425.74, 16046.23, -187500.02, -114223.53, -28346.53, 129875.55, 0.00, 0.00, 0.00, 0.00, 0.00, 0.00, 0.00, 0.00, 0
30, 17869.82, -5137.64, 32432.56, 16047.88, -187500.02, -114265.47, -28351.06, 129897.23, 0.00, 0.00, 0.00, 0.00, 0.00, 0.00, 0.00, 0.00, 0
31, 17865.30, -5164.06, 32419.88, 16026.80, -187500.02, -114329.10, -28369.59, 129903.87, 0.00, 0.00, 0.00, 0.00, 0.00, 0.00, 0.00, 0.00, 0
32, 17879.85, -5174.00, 32425.61, 16023.12, -187500.02, -114377.60, -28371.72, 129925.05, 0.00, 0.00, 0.00, 0.00, 0.00, 0.00, 0.00, 0.00, 0
33, 17914.30, -5159.99, 32451.92, 16043.08, -187500.02, -114403.69, -28357.59, 129963.61, 0.00, 0.00, 0.00, 0.00, 0.00, 0.00, 0.00, 0.00, 0
34, 17931.75, -5158.78, 32463.34, 16047.39, -187500.02, -114442.07, -28355.89, 129990.03, 0.00, 0.00, 0.00, 0.00, 0.00, 0.00, 0.00, 0.00, 0
35, 17926.93, -5182.12, 32454.24, 16026.96, -187500.02, -114504.23, -28374.35, 129997.61, 0.00, 0.00, 0.00, 0.00, 0.00, 0.00, 0.00, 0.00, 0
36, 17934.79, -5195.91, 32456.81, 16017.08, -187500.02, -114555.23, -28380.86, 130014.69, 0.00, 0.00, 0.00, 0.00, 0.00, 0.00, 0.00, 0.00, 0
37, 17967.63, -5182.30, 32482.56, 16033.40, -187500.02, -114581.70, -28366.73, 130053.98, 0.00, 0.00, 0.00, 0.00, 0.00, 0.00, 0.00, 0.00, 0
38, 17991.79, -5176.64, 32498.00, 16043.84, -187500.02, -114616.32, -28362.37, 130086.95, 0.00, 0.00, 0.00, 0.00, 0.00, 0.00, 0.00, 0.00, 0
39, 17988.73, -5198.93, 32487.34, 16025.60, -187500.02, -114677.27, -28376.48, 130096.63, 0.00, 0.00, 0.00, 0.00, 0.00, 0.00, 0.00, 0.00, 0
40, 17994.32, -5216.16, 32484.62, 16011.98, -187500.02, -114733.71, -28383.50, 130110.13, 0.00, 0.00, 0.00, 0.00, 0.00, 0.00, 0.00, 0.00, 0
41, 18024.51, -5204.74, 32509.47, 16027.65, -187500.02, -114763.33, -28371.31, 130148.68, 0.00, 0.00, 0.00, 0.00, 0.00, 0.00, 0.00, 0.00, 0
42, 18051.58, -5193.83, 32530.41, 16042.14, -187500.02, -114792.41, -28362.73, 130186.19, 0.00, 0.00, 0.00, 0.00, 0.00, 0.00, 0.00, 0.00, 0
43, 18053.26, -5209.88, 32524.45, 16027.92, -187500.02, -114849.49, -28374.51, 130199.55, 0.00, 0.00, 0.00, 0.00, 0.00, 0.00, 0.00, 0.00, 0
44, 18053.28, -5229.55, 32515.15, 16009.32, -187500.02, -114908.95, -28385.75, 130209.37, 0.00, 0.00, 0.00, 0.00, 0.00, 0.00, 0.00, 0.00, 0
45, 18078.18, -5222.51, 32534.55, 16019.52, -187500.02, -114943.48, -28372.90, 130243.19, 0.00, 0.00, 0.00, 0.00, 0.00, 0.00, 0.00, 0.00, 0
46, 18107.91, -5208.27, 32559.36, 16037.47, -187500.02, -114971.83, -28358.80, 130280.58, 0.00, 0.00, 0.00, 0.00, 0.00, 0.00, 0.00, 0.00, 0
47, 18112.13, -5221.64, 32557.19, 16027.45, -187500.02, -115025.67, -28367.36, 130297.05, 0.00, 0.00, 0.00, 0.00, 0.00, 0.00, 0.00, 0.00, 0
48, 18110.10, -5245.28, 32548.25, 16008.07, -187500.02, -115089.95, -28383.45, 130307.00, 0.00, 0.00, 0.00, 0.00, 0.00, 0.00, 0.00, 0.00, 0
49, 18133.52, -5243.36, 32563.43, 16014.87, -187500.02, -115129.45, -28377.93, 130337.66, 0.00, 0.00, 0.00, 0.00, 0.00, 0.00, 0.00, 0.00, 0
50, 18167.72, -5229.62, 32588.13, 16035.61, -187500.02, -115155.83, -28363.60, 130377.41, 0.00, 0.00, 0.00, 0.00, 0.00, 0.00, 0.00, 0.00, 0
51, 18178.25, -5240.10, 32589.92, 16032.30, -187500.02, -115203.81, -28367.07, 130396.52, 0.00, 0.00, 0.00, 0.00, 0.00, 0.00, 0.00, 0.00, 0
52, 18173.60, -5265.94, 32577.76, 16010.62, -187500.02, -115267.85, -28381.62, 130401.59, 0.00, 0.00, 0.00, 0.00, 0.00, 0.00, 0.00, 0.00, 0
53, 18190.83, -5269.58, 32589.09, 16010.53, -187500.02, -115311.44, -28379.32, 130426.29, 0.00, 0.00, 0.00, 0.00, 0.00, 0.00, 0.00, 0.00, 0
54, 18225.16, -5254.13, 32616.13, 16032.75, -187500.02, -115335.51, -28362.89, 130468.55, 0.00, 0.00, 0.00, 0.00, 0.00, 0.00, 0.00, 0.00, 0
55, 18239.76, -5257.96, 32623.06, 16033.08, -187500.02, -115376.52, -28364.16, 130495.07, 0.00, 0.00, 0.00, 0.00, 0.00, 0.00, 0.00, 0.00, 0
56, 18235.29, -5283.77, 32609.27, 16008.83, -187500.02, -115439.98, -28381.06, 130500.14, 0.00, 0.00, 0.00, 0.00, 0.00, 0.00, 0.00, 0.00, 0
57, 18248.21, -5292.29, 32615.08, 16003.80, -187500.02, -115490.03, -28383.18, 130519.81, 0.00, 0.00, 0.00, 0.00, 0.00, 0.00, 0.00, 0.00, 0
58, 18281.80, -5277.11, 32643.34, 16022.45, -187500.02, -115516.56, -28367.31, 130559.71, 0.00, 0.00, 0.00, 0.00, 0.00, 0.00, 0.00, 0.00, 0
59, 18302.97, -5275.59, 32655.76, 16030.11, -187500.02, -115553.75, -28363.49, 130588.99, 0.00, 0.00, 0.00, 0.00, 0.00, 0.00, 0.00, 0.00, 0
60, 18299.24, -5300.02, 32644.81, 16011.65, -187500.02, -115617.21, -28380.75, 130595.83, 0.00, 0.00, 0.00, 0.00, 0.00, 0.00, 0.00, 0.00, 0
61, 18304.04, -5315.09, 32645.97, 16000.85, -187500.02, -115673.11, -28388.44, 130610.36, 0.00, 0.00, 0.00, 0.00, 0.00, 0.00, 0.00, 0.00, 0
62, 18332.47, -5300.40, 32671.34, 16017.91, -187500.02, -115700.20, -28372.99, 130647.51, 0.00, 0.00, 0.00, 0.00, 0.00, 0.00, 0.00, 0.00, 0
63, 18353.82, -5293.81, 32690.48, 16029.69, -187500.02, -115732.79, -28363.89, 130680.81, 0.00, 0.00, 0.00, 0.00, 0.00, 0.00, 0.00, 0.00, 0
64, 18351.29, -5316.30, 32682.90, 16013.64, -187500.02, -115793.41, -28376.07, 130689.48, 0.00, 0.00, 0.00, 0.00, 0.00, 0.00, 0.00, 0.00, 0
65, 18353.75, -5334.82, 32679.34, 15999.69, -187500.02, -115853.05, -28386.00, 130700.39, 0.00, 0.00, 0.00, 0.00, 0.00, 0.00, 0.00, 0.00, 0
66, 18383.24, -5325.35, 32701.85, 16015.09, -187500.02, -115883.77, -28373.68, 130736.24, 0.00, 0.00, 0.00, 0.00, 0.00, 0.00, 0.00, 0.00, 0
67, 18411.27, -5314.17, 32722.80, 16030.71, -187500.02, -115912.27, -28362.13, 130773.08, 0.00, 0.00, 0.00, 0.00, 0.00, 0.00, 0.00, 0.00, 0
68, 18411.44, -5330.91, 32715.98, 16017.66, -187500.02, -115968.52, -28374.69, 130785.95, 0.00, 0.00, 0.00, 0.00, 0.00, 0.00, 0.00, 0.00, 0
69, 18408.65, -5352.26, 32707.33, 15998.55, -187500.02, -116029.60, -28390.27, 130795.07, 0.00, 0.00, 0.00, 0.00, 0.00, 0.00, 0.00, 0.00, 0
70, 18432.59, -5346.47, 32725.99, 16007.18, -187500.02, -116064.91, -28381.71, 130828.00, 0.00, 0.00, 0.00, 0.00, 0.00, 0.00, 0.00, 0.00, 0
71, 18461.80, -5332.95, 32751.63, 16026.07, -187500.02, -116090.82, -28367.00, 130867.36, 0.00, 0.00, 0.00, 0.00, 0.00, 0.00, 0.00, 0.00, 0
72, 18467.30, -5346.07, 32751.36, 16019.58, -187500.02, -116141.25, -28374.71, 130884.97, 0.00, 0.00, 0.00, 0.00, 0.00, 0.00, 0.00, 0.00, 0
73, 18465.65, -5370.90, 32741.24, 15998.69, -187500.02, -116205.02, -28390.76, 130893.13, 0.00, 0.00, 0.00, 0.00, 0.00, 0.00, 0.00, 0.00, 0
74, 18488.13, -5368.40, 32755.83, 16002.37, -187500.02, -116244.06, -28384.63, 130921.02, 0.00, 0.00, 0.00, 0.00, 0.00, 0.00, 0.00, 0.00, 0
75, 18522.51, -5350.78, 32781.29, 16022.76, -187500.02, -116270.02, -28368.19, 130961.19, 0.00, 0.00, 0.00, 0.00, 0.00, 0.00, 0.00, 0.00, 0
76, 18532.90, -5356.98, 32784.38, 16019.81, -187500.02, -116317.76, -28370.46, 130981.35, 0.00, 0.00, 0.00, 0.00, 0.00, 0.00, 0.00, 0.00, 0
77, 18527.40, -5381.16, 32771.79, 15996.83, -187500.02, -116383.14, -28386.78, 130986.83, 0.00, 0.00, 0.00, 0.00, 0.00, 0.00, 0.00, 0.00, 0
78, 18541.71, -5385.90, 32779.30, 15995.00, -187500.02, -116427.22, -28386.42, 131008.78, 0.00, 0.00, 0.00, 0.00, 0.00, 0.00, 0.00, 0.00, 0
79, 18573.83, -5368.40, 32804.94, 16015.67, -187500.02, -116451.80, -28371.98, 131048.36, 0.00, 0.00, 0.00, 0.00, 0.00, 0.00, 0.00, 0.00, 0
80, 18589.74, -5370.01, 32812.65, 16018.02, -187500.02, -116493.06, -28372.05, 131076.86, 0.00, 0.00, 0.00, 0.00, 0.00, 0.00, 0.00, 0.00, 0
81, 18585.16, -5394.50, 32799.91, 15996.05, -187500.02, -116557.80, -28388.82, 131084.73, 0.00, 0.00, 0.00, 0.00, 0.00, 0.00, 0.00, 0.00, 0
82, 18596.25, -5404.70, 32803.38, 15988.05, -187500.02, -116609.80, -28391.83, 131104.58, 0.00, 0.00, 0.00, 0.00, 0.00, 0.00, 0.00, 0.00, 0
83, 18628.05, -5388.47, 32830.82, 16006.55, -187500.02, -116635.40, -28376.70, 131145.45, 0.00, 0.00, 0.00, 0.00, 0.00, 0.00, 0.00, 0.00, 0
84, 18648.80, -5383.75, 32845.42, 16015.76, -187500.02, -116670.05, -28371.56, 131176.50, 0.00, 0.00, 0.00, 0.00, 0.00, 0.00, 0.00, 0.00, 0
85, 18645.33, -5408.81, 32835.09, 15995.42, -187500.02, -116733.73, -28385.75, 131185.36, 0.00, 0.00, 0.00, 0.00, 0.00, 0.00, 0.00, 0.00, 0
86, 18649.94, -5425.84, 32833.35, 15982.48, -187500.02, -116791.33, -28394.00, 131199.84, 0.00, 0.00, 0.00, 0.00, 0.00, 0.00, 0.00, 0.00, 0
87, 18681.61, -5412.27, 32857.58, 15998.10, -187500.02, -116820.49, -28381.71, 131237.77, 0.00, 0.00, 0.00, 0.00, 0.00, 0.00, 0.00, 0.00, 0
88, 18710.15, -5403.33, 32878.16, 16009.35, -187500.02, -116850.69, -28373.93, 131273.09, 0.00, 0.00, 0.00, 0.00, 0.00, 0.00, 0.00, 0.00, 0
89, 18710.38, -5426.15, 32871.66, 15991.51, -187500.02, -116908.09, -28389.93, 131284.05, 0.00, 0.00, 0.00, 0.00, 0.00, 0.00, 0.00, 0.00, 0
90, 18711.96, -5447.34, 32865.73, 15974.86, -187500.02, -116968.38, -28404.28, 131294.02, 0.00, 0.00, 0.00, 0.00, 0.00, 0.00, 0.00, 0.00, 0
91, 18742.16, -5436.41, 32888.02, 15987.89, -187500.02, -117002.44, -28397.29, 131328.59, 0.00, 0.00, 0.00, 0.00, 0.00, 0.00, 0.00, 0.00, 0
92, 18773.90, -5423.87, 32911.38, 16004.38, -187500.02, -117031.92, -28385.24, 131366.19, 0.00, 0.00, 0.00, 0.00, 0.00, 0.00, 0.00, 0.00, 0
93, 18777.52, -5440.55, 32907.98, 15992.54, -187500.02, -117086.57, -28393.44, 131381.11, 0.00, 0.00, 0.00, 0.00, 0.00, 0.00, 0.00, 0.00, 0
94, 18773.90, -5465.58, 32899.02, 15973.43, -187500.02, -117148.10, -28408.93, 131389.05, 0.00, 0.00, 0.00, 0.00, 0.00, 0.00, 0.00, 0.00, 0
95, 18798.17, -5462.56, 32915.91, 15981.52, -187500.02, -117182.99, -28402.16, 131419.45, 0.00, 0.00, 0.00, 0.00, 0.00, 0.00, 0.00, 0.00, 0
96, 18832.89, -5448.08, 32940.35, 16002.35, -187500.02, -117207.45, -28386.18, 131459.44, 0.00, 0.00, 0.00, 0.00, 0.00, 0.00, 0.00, 0.00, 0
97, 18842.39, -5460.44, 32940.64, 15995.24, -187500.02, -117257.41, -28391.70, 131478.72, 0.00, 0.00, 0.00, 0.00, 0.00, 0.00, 0.00, 0.00, 0
98, 18838.47, -5487.93, 32929.01, 15972.40, -187500.02, -117322.45, -28409.71, 131484.31, 0.00, 0.00, 0.00, 0.00, 0.00, 0.00, 0.00, 0.00, 0
99, 18857.56, -5489.66, 32941.82, 15975.71, -187500.02, -117363.58, -28408.15, 131510.94, 0.00, 0.00, 0.00, 0.00, 0.00, 0.00, 0.00, 0.00, 0
100, 18892.70, -5474.50, 32970.74, 15997.34, -187500.02, -117387.76, -28392.15, 131550.86, 0.00, 0.00, 0.00, 0.00, 0.00, 0.00, 0.00, 0.00, 0
101, 18905.42, -5480.58, 32977.83, 15996.32, -187500.02, -117432.26, -28394.27, 131573.61, 0.00, 0.00, 0.00, 0.00, 0.00, 0.00, 0.00, 0.00, 0
102, 18899.09, -5506.80, 32966.16, 15974.52, -187500.02, -117496.03, -28410.61, 131580.95, 0.00, 0.00, 0.00, 0.00, 0.00, 0.00, 0.00, 0.00, 0
103, 18912.77, -5514.13, 32974.25, 15971.84, -187500.02, -117542.57, -28411.95, 131604.14, 0.00, 0.00, 0.00, 0.00, 0.00, 0.00, 0.00, 0.00, 0
104, 18945.88, -5497.43, 33003.11, 15993.01, -187500.02, -117567.98, -28395.45, 131644.70, 0.00, 0.00, 0.00, 0.00, 0.00, 0.00, 0.00, 0.00, 0
105, 18961.86, -5498.22, 33015.34, 15999.02, -187500.02, -117608.37, -28392.55, 131671.19, 0.00, 0.00, 0.00, 0.00, 0.00, 0.00, 0.00, 0.00, 0
106, 18956.49, -5524.26, 33004.00, 15979.11, -187500.02, -117673.82, -28409.22, 131677.81, 0.00, 0.00, 0.00, 0.00, 0.00, 0.00, 0.00, 0.00, 0
107, 18964.94, -5536.79, 33007.60, 15970.72, -187500.02, -117726.99, -28412.78, 131694.16, 0.00, 0.00, 0.00, 0.00, 0.00, 0.00, 0.00, 0.00, 0
108, 18996.72, -5522.65, 33035.96, 15988.67, -187500.02, -117755.06, -28395.92, 131734.00, 0.00, 0.00, 0.00, 0.00, 0.00, 0.00, 0.00, 0.00, 0
109, 19019.63, -5516.34, 33054.63, 15998.84, -187500.02, -117790.05, -28389.44, 131766.48, 0.00, 0.00, 0.00, 0.00, 0.00, 0.00, 0.00, 0.00, 0
110, 19017.11, -5538.87, 33046.07, 15981.47, -187500.02, -117850.10, -28404.66, 131775.11, 0.00, 0.00, 0.00, 0.00, 0.00, 0.00, 0.00, 0.00, 0
111, 19020.73, -5556.96, 33041.44, 15967.97, -187500.02, -117907.41, -28413.76, 131786.16, 0.00, 0.00, 0.00, 0.00, 0.00, 0.00, 0.00, 0.00, 0
112, 19052.98, -5546.67, 33064.40, 15982.41, -187500.02, -117938.17, -28400.97, 131822.83, 0.00, 0.00, 0.00, 0.00, 0.00, 0.00, 0.00, 0.00, 0
113, 19081.08, -5538.20, 33085.05, 15995.94, -187500.02, -117969.87, -28390.98, 131857.42, 0.00, 0.00, 0.00, 0.00, 0.00, 0.00, 0.00, 0.00, 0
114, 19081.77, -5557.56, 33077.09, 15981.12, -187500.02, -118028.96, -28402.72, 131869.28, 0.00, 0.00, 0.00, 0.00, 0.00, 0.00, 0.00, 0.00, 0
115, 19081.10, -5579.69, 33069.34, 15964.24, -187500.02, -118089.67, -28414.74, 131878.86, 0.00, 0.00, 0.00, 0.00, 0.00, 0.00, 0.00, 0.00, 0
116, 19108.13, -5574.44, 33088.14, 15977.21, -187500.02, -118124.80, -28406.21, 131913.22, 0.00, 0.00, 0.00, 0.00, 0.00, 0.00, 0.00, 0.00, 0
117, 19137.74, -5561.20, 33111.63, 15996.38, -187500.02, -118153.91, -28394.61, 131951.70, 0.00, 0.00, 0.00, 0.00, 0.00, 0.00, 0.00, 0.00, 0
118, 19140.60, -5574.88, 33108.32, 15988.29, -187500.02, -118209.86, -28406.12, 131967.33, 0.00, 0.00, 0.00, 0.00, 0.00, 0.00, 0.00, 0.00, 0
119, 19139.53, -5599.42, 33097.72, 15967.68, -187500.02, -118275.03, -28421.29, 131974.89, 0.00, 0.00, 0.00, 0.00, 0.00, 0.00, 0.00, 0.00, 0
120, 19163.40, -5597.08, 33114.13, 15972.73, -187500.02, -118312.83, -28415.84, 132006.09, 0.00, 0.00, 0.00, 0.00, 0.00, 0.00, 0.00, 0.00, 0
121, 19195.43, -5582.59, 33141.87, 15994.46, -187500.02, -118337.04, -28401.62, 132047.03, 0.00, 0.00, 0.00, 0.00, 0.00, 0.00, 0.00, 0.00, 0
122, 19204.26, -5591.89, 33144.89, 15992.63, -187500.02, -118384.31, -28408.26, 132067.48, 0.00, 0.00, 0.00, 0.00, 0.00, 0.00, 0.00, 0.00, 0
123, 19199.57, -5616.28, 33133.42, 15970.86, -187500.02, -118448.06, -28425.81, 132072.36, 0.00, 0.00, 0.00, 0.00, 0.00, 0.00, 0.00, 0.00, 0
124, 19217.16, -5616.68, 33144.30, 15971.06, -187500.02, -118492.16, -28422.14, 132096.64, 0.00, 0.00, 0.00, 0.00, 0.00, 0.00, 0.00, 0.00, 0
125, 19251.29, -5600.99, 33171.82, 15992.20, -187500.02, -118516.12, -28402.67, 132138.61, 0.00, 0.00, 0.00, 0.00, 0.00, 0.00, 0.00, 0.00, 0
126, 19264.32, -5605.68, 33179.38, 15994.37, -187500.02, -118556.71, -28403.01, 132164.30, 0.00, 0.00, 0.00, 0.00, 0.00, 0.00, 0.00, 0.00, 0
127, 19258.11, -5632.08, 33166.86, 15973.76, -187500.02, -118620.99, -28421.49, 132171.98, 0.00, 0.00, 0.00, 0.00, 0.00, 0.00, 0.00, 0.00, 0
128, 19270.69, -5640.75, 33170.93, 15968.62, -187500.02, -118671.53, -28424.53, 132192.30, 0.00, 0.00, 0.00, 0.00, 0.00, 0.00, 0.00, 0.00, 0
129, 19304.44, -5625.15, 33196.90, 15988.67, -187500.02, -118697.52, -28409.40, 132232.67, 0.00, 0.00, 0.00, 0.00, 0.00, 0.00, 0.00, 0.00, 0
130, 19324.22, -5621.89, 33209.91, 15994.97, -187500.02, -118735.97, -28406.99, 132263.41, 0.00, 0.00, 0.00, 0.00, 0.00, 0.00, 0.00, 0.00, 0
131, 19319.42, -5646.07, 33198.31, 15971.84, -187500.02, -118798.63, -28423.42, 132272.80, 0.00, 0.00, 0.00, 0.00, 0.00, 0.00, 0.00, 0.00, 0
132, 19325.96, -5660.15, 33198.69, 15958.74, -187500.02, -118853.20, -28429.16, 132289.20, 0.00, 0.00, 0.00, 0.00, 0.00, 0.00, 0.00, 0.00, 0
133, 19356.50, -5647.37, 33226.09, 15975.35, -187500.02, -118881.93, -28413.92, 132327.36, 0.00, 0.00, 0.00, 0.00, 0.00, 0.00, 0.00, 0.00, 0
134, 19379.25, -5640.26, 33243.21, 15986.93, -187500.02, -118915.41, -28406.14, 132360.16, 0.00, 0.00, 0.00, 0.00, 0.00, 0.00, 0.00, 0.00, 0
135, 19376.03, -5660.33, 33232.80, 15969.74, -187500.02, -118977.41, -28422.43, 132369.69, 0.00, 0.00, 0.00, 0.00, 0.00, 0.00, 0.00, 0.00, 0
136, 19379.65, -5678.01, 33230.34, 15955.19, -187500.02, -119037.59, -28432.78, 132383.05, 0.00, 0.00, 0.00, 0.00, 0.00, 0.00, 0.00, 0.00, 0
137, 19409.27, -5670.06, 33255.21, 15969.00, -187500.02, -119068.81, -28418.95, 132418.91, 0.00, 0.00, 0.00, 0.00, 0.00, 0.00, 0.00, 0.00, 0
138, 19436.61, -5660.62, 33277.07, 15985.81, -187500.02, -119097.24, -28405.96, 132453.66, 0.00, 0.00, 0.00, 0.00, 0.00, 0.00, 0.00, 0.00, 0
139, 19437.48, -5678.59, 33270.48, 15971.42, -187500.02, -119155.45, -28418.12, 132465.28, 0.00, 0.00, 0.00, 0.00, 0.00, 0.00, 0.00, 0.00, 0
140, 19436.56, -5702.35, 33262.48, 15949.56, -187500.02, -119218.37, -28433.94, 132471.34, 0.00, 0.00, 0.00, 0.00, 0.00, 0.00, 0.00, 0.00, 0
141, 19463.21, -5697.21, 33282.28, 15957.54, -187500.02, -119254.87, -28426.34, 132500.67, 0.00, 0.00, 0.00, 0.00, 0.00, 0.00, 0.00, 0.00, 0
142, 19496.76, -5683.31, 33308.30, 15976.56, -187500.02, -119282.29, -28411.12, 132538.91, 0.00, 0.00, 0.00, 0.00, 0.00, 0.00, 0.00, 0.00, 0
143, 19504.62, -5696.39, 33307.88, 15969.07, -187500.02, -119333.77, -28417.38, 132553.81, 0.00, 0.00, 0.00, 0.00, 0.00, 0.00, 0.00, 0.00, 0
144, 19502.92, -5720.33, 33295.74, 15948.59, -187500.02, -119398.01, -28431.73, 132558.20, 0.00, 0.00, 0.00, 0.00, 0.00, 0.00, 0.00, 0.00, 0
145, 19525.28, -5720.59, 33307.20, 15952.89, -187500.02, -119440.74, -28426.93, 132584.91, 0.00, 0.00, 0.00, 0.00, 0.00, 0.00, 0.00, 0.00, 0
146, 19558.47, -5704.54, 33333.94, 15972.49, -187500.02, -119466.41, -28412.60, 132624.73, 0.00, 0.00, 0.00, 0.00, 0.00, 0.00, 0.00, 0.00, 0
147, 19567.59, -5709.60, 33338.39, 15969.05, -187500.02, -119513.86, -28420.40, 132644.39, 0.00, 0.00, 0.00, 0.00, 0.00, 0.00, 0.00, 0.00, 0
148, 19560.64, -5735.03, 33328.11, 15945.85, -187500.02, -119579.30, -28440.00, 132648.02, 0.00, 0.00, 0.00, 0.00, 0.00, 0.00, 0.00, 0.00, 0
149, 19576.48, -5739.73, 33337.92, 15944.08, -187500.02, -119625.44, -28440.61, 132670.36, 0.00, 0.00, 0.00, 0.00, 0.00, 0.00, 0.00, 0.00, 0
150, 19610.23, -5724.08, 33364.70, 15964.00, -187500.02, -119650.54, -28423.26, 132710.30, 0.00, 0.00, 0.00, 0.00, 0.00, 0.00, 0.00, 0.00, 0
151, 19625.08, -5726.23, 33374.24, 15967.77, -187500.02, -119694.41, -28421.18, 132736.23, 0.00, 0.00, 0.00, 0.00, 0.00, 0.00, 0.00, 0.00, 0
152, 19620.52, -5751.98, 33361.96, 15946.99, -187500.02, -119760.11, -28440.13, 132744.06, 0.00, 0.00, 0.00, 0.00, 0.00, 0.00, 0.00, 0.00, 0
153, 19633.15, -5763.75, 33364.70, 15939.32, -187500.02, -119811.29, -28447.67, 132762.63, 0.00, 0.00, 0.00, 0.00, 0.00, 0.00, 0.00, 0.00, 0
154, 19666.61, -5748.02, 33390.11, 15958.63, -187500.02, -119839.68, -28432.36, 132801.19, 0.00, 0.00, 0.00, 0.00, 0.00, 0.00, 0.00, 0.00, 0
155, 19685.65, -5743.44, 33403.14, 15967.53, -187500.02, -119875.46, -28427.64, 132830.91, 0.00, 0.00, 0.00, 0.00, 0.00, 0.00, 0.00, 0.00, 0
156, 19680.04, -5767.40, 33393.28, 15947.99, -187500.02, -119937.38, -28445.12, 132839.16, 0.00, 0.00, 0.00, 0.00, 0.00, 0.00, 0.00, 0.00, 0
157, 19684.82, -5782.22, 33393.15, 15934.80, -187500.02, -119995.36, -28450.39, 132853.69, 0.00, 0.00, 0.00, 0.00, 0.00, 0.00, 0.00, 0.00, 0
158, 19716.52, -5768.69, 33417.55, 15949.82, -187500.02, -120024.73, -28434.70, 132891.11, 0.00, 0.00, 0.00, 0.00, 0.00, 0.00, 0.00, 0.00, 0
159, 19739.96, -5760.51, 33436.18, 15962.45, -187500.02, -120055.55, -28425.79, 132926.22, 0.00, 0.00, 0.00, 0.00, 0.00, 0.00, 0.00, 0.00, 0
160, 19736.54, -5779.67, 33426.86, 15946.85, -187500.02, -120114.07, -28437.05, 132937.31, 0.00, 0.00, 0.00, 0.00, 0.00, 0.00, 0.00, 0.00, 0
161, 19734.55, -5797.73, 33420.02, 15930.89, -187500.02, -120173.97, -28445.32, 132944.63, 0.00, 0.00, 0.00, 0.00, 0.00, 0.00, 0.00, 0.00, 0
162, 19761.24, -5789.71, 33441.11, 15943.21, -187500.02, -120205.48, -28431.80, 132977.42, 0.00, 0.00, 0.00, 0.00, 0.00, 0.00, 0.00, 0.00, 0
163, 19792.38, -5777.28, 33464.50, 15959.61, -187500.02, -120233.74, -28419.93, 133014.13, 0.00, 0.00, 0.00, 0.00, 0.00, 0.00, 0.00, 0.00, 0
164, 19795.06, -5791.52, 33459.02, 15948.06, -187500.02, -120288.45, -28431.84, 133025.78, 0.00, 0.00, 0.00, 0.00, 0.00, 0.00, 0.00, 0.00, 0
165, 19793.14, -5813.31, 33448.36, 15927.99, -187500.02, -120353.45, -28445.86, 133033.11, 0.00, 0.00, 0.00, 0.00, 0.00, 0.00, 0.00, 0.00, 0
166, 19818.44, -5809.22, 33465.72, 15936.88, -187500.02, -120393.11, -28439.89, 133063.58, 0.00, 0.00, 0.00, 0.00, 0.00, 0.00, 0.00, 0.00, 0
167, 19853.04, -5794.58, 33490.47, 15955.59, -187500.02, -120420.24, -28426.37, 133101.81, 0.00, 0.00, 0.00, 0.00, 0.00, 0.00, 0.00, 0.00, 0
168, 19861.42, -5806.18, 33488.79, 15949.38, -187500.02, -120470.53, -28431.57, 133119.83, 0.00, 0.00, 0.00, 0.00, 0.00, 0.00, 0.00, 0.00, 0
169, 19856.60, -5831.66, 33476.72, 15928.34, -187500.02, -120536.31, -28448.12, 133126.00, 0.00, 0.00, 0.00, 0.00, 0.00, 0.00, 0.00, 0.00, 0
170, 19876.33, -5833.74, 33491.14, 15931.43, -187500.02, -120581.27, -28445.10, 133152.41, 0.00, 0.00, 0.00, 0.00, 0.00, 0.00, 0.00, 0.00, 0
171, 19911.45, -5819.63, 33518.96, 15952.95, -187500.02, -120606.41, -28428.20, 133193.84, 0.00, 0.00, 0.00, 0.00, 0.00, 0.00, 0.00, 0.00, 0
172, 19925.48, -5825.92, 33524.60, 15951.97, -187500.02, -120651.29, -28428.18, 133216.95, 0.00, 0.00, 0.00, 0.00, 0.00, 0.00, 0.00, 0.00, 0
173, 19921.01, -5852.45, 33513.63, 15928.75, -187500.02, -120718.66, -28444.67, 133222.72, 0.00, 0.00, 0.00, 0.00, 0.00, 0.00, 0.00, 0.00, 0
174, 19936.73, -5858.53, 33520.57, 15923.23, -187500.02, -120767.50, -28444.79, 133244.06, 0.00, 0.00, 0.00, 0.00, 0.00, 0.00, 0.00, 0.00, 0
175, 19972.09, -5842.28, 33547.20, 15942.58, -187500.02, -120792.94, -28427.69, 133283.92, 0.00, 0.00, 0.00, 0.00, 0.00, 0.00, 0.00, 0.00, 0
176, 19989.83, -5841.56, 33559.89, 15948.28, -187500.02, -120833.50, -28426.88, 133311.92, 0.00, 0.00, 0.00, 0.00, 0.00, 0.00, 0.00, 0.00, 0
177, 19984.34, -5866.37, 33549.03, 15927.54, -187500.02, -120897.34, -28443.76, 133318.41, 0.00, 0.00, 0.00, 0.00, 0.00, 0.00, 0.00, 0.00, 0
178, 19993.59, -5879.38, 33548.38, 15918.49, -187500.02, -120949.89, -28447.87, 133334.72, 0.00, 0.00, 0.00, 0.00, 0.00, 0.00, 0.00, 0.00, 0
179, 20028.12, -5865.70, 33571.87, 15938.49, -187500.02, -120975.51, -28431.42, 133372.20, 0.00, 0.00, 0.00, 0.00, 0.00, 0.00, 0.00, 0.00, 0
180, 20049.63, -5860.94, 33585.11, 15949.94, -187500.02, -121010.06, -28423.28, 133403.83, 0.00, 0.00, 0.00, 0.00, 0.00, 0.00, 0.00, 0.00, 0
181, 20045.02, -5884.79, 33573.05, 15931.05, -187500.02, -121073.07, -28438.21, 133413.80, 0.00, 0.00, 0.00, 0.00, 0.00, 0.00, 0.00, 0.00, 0
182, 20047.41, -5902.76, 33568.18, 15916.86, -187500.02, -121132.39, -28447.31, 133427.23, 0.00, 0.00, 0.00, 0.00, 0.00, 0.00, 0.00, 0.00, 0
183, 20077.05, -5890.40, 33592.61, 15931.90, -187500.02, -121165.13, -28433.45, 133465.75, 0.00, 0.00, 0.00, 0.00, 0.00, 0.00, 0.00, 0.00, 0
184, 20102.82, -5880.23, 33612.62, 15946.16, -187500.02, -121197.48, -28423.97, 133501.84, 0.00, 0.00, 0.00, 0.00, 0.00, 0.00, 0.00, 0.00, 0
185, 20101.84, -5897.98, 33604.82, 15930.98, -187500.02, -121256.91, -28437.16, 133511.64, 0.00, 0.00, 0.00, 0.00, 0.00, 0.00, 0.00, 0.00, 0
186, 20102.71, -5918.52, 33597.64, 15913.55, -187500.02, -121319.61, -28452.34, 133520.39, 0.00, 0.00, 0.00, 0.00, 0.00, 0.00, 0.00, 0.00, 0
187, 20130.29, -5912.26, 33617.38, 15926.13, -187500.02, -121355.69, -28443.58, 133552.20, 0.00, 0.00, 0.00, 0.00, 0.00, 0.00, 0.00, 0.00, 0
188, 20160.67, -5900.30, 33640.38, 15944.10, -187500.02, -121384.79, -28430.30, 133590.03, 0.00, 0.00, 0.00, 0.00, 0.00, 0.00, 0.00, 0.00, 0
189, 20164.71, -5915.97, 33638.39, 15933.40, -187500.02, -121437.16, -28441.23, 133605.98, 0.00, 0.00, 0.00, 0.00, 0.00, 0.00, 0.00, 0.00, 0
190, 20162.57, -5941.81, 33628.40, 15913.17, -187500.02, -121501.33, -28456.83, 133613.41, 0.00, 0.00, 0.00, 0.00, 0.00, 0.00, 0.00, 0.00, 0
191, 20183.87, -5939.77, 33643.91, 15918.82, -187500.02, -121541.79, -28448.88, 133642.69, 0.00, 0.00, 0.00, 0.00, 0.00, 0.00, 0.00, 0.00, 0
192, 20215.05, -5925.74, 33667.49, 15939.21, -187500.02, -121568.79, -28433.14, 133681.70, 0.00, 0.00, 0.00, 0.00, 0.00, 0.00, 0.00, 0.00, 0
193, 20223.14, -5936.98, 33668.50, 15933.75, -187500.02, -121617.78, -28437.65, 133701.72, 0.00, 0.00, 0.00, 0.00, 0.00, 0.00, 0.00, 0.00, 0
194, 20218.31, -5963.98, 33657.05, 15911.02, -187500.02, -121683.79, -28454.46, 133706.70, 0.00, 0.00, 0.00, 0.00, 0.00, 0.00, 0.00, 0.00, 0
195, 20236.40, -5968.09, 33668.41, 15911.07, -187500.02, -121728.31, -28453.77, 133731.02, 0.00, 0.00, 0.00, 0.00, 0.00, 0.00, 0.00, 0.00, 0
196, 20269.63, -5953.86, 33696.41, 15932.46, -187500.02, -121753.55, -28438.57, 133772.81, 0.00, 0.00, 0.00, 0.00, 0.00, 0.00, 0.00, 0.00, 0
197, 20282.26, -5957.34, 33705.71, 15933.53, -187500.02, -121797.09, -28441.54, 133797.47, 0.00, 0.00, 0.00, 0.00, 0.00, 0.00, 0.00, 0.00, 0
198, 20275.98, -5982.31, 33692.88, 15911.60, -187500.02, -121863.30, -28460.52, 133803.91, 0.00, 0.00, 0.00, 0.00, 0.00, 0.00, 0.00, 0.00, 0
199, 20287.98, -5988.68, 33696.66, 15908.00, -187500.02, -121913.98, -28461.19, 133824.66, 0.00, 0.00, 0.00, 0.00, 0.00, 0.00, 0.00, 0.00, 0
200, 20321.63, -5973.55, 33722.84, 15929.17, -187500.02, -121941.19, -28442.97, 133865.52, 0.00, 0.00, 0.00, 0.00, 0.00, 0.00, 0.00, 0.00, 0
201, 20339.86, -5971.47, 33736.36, 15936.48, -187500.02, -121980.66, -28438.28, 133894.86, 0.00, 0.00, 0.00, 0.00, 0.00, 0.00, 0.00, 0.00, 0
202, 20335.01, -5995.74, 33726.75, 15916.30, -187500.02, -122046.76, -28455.65, 133899.34, 0.00, 0.00, 0.00, 0.00, 0.00, 0.00, 0.00, 0.00, 0
203, 20343.15, -6010.34, 33728.76, 15906.53, -187500.02, -122104.34, -28463.38, 133912.67, 0.00, 0.00, 0.00, 0.00, 0.00, 0.00, 0.00, 0.00, 0
204, 20376.39, -5997.53, 33753.84, 15925.66, -187500.02, -122134.73, -28451.29, 133950.63, 0.00, 0.00, 0.00, 0.00, 0.00, 0.00, 0.00, 0.00, 0
205, 20400.35, -5990.63, 33769.93, 15937.93, -187500.02, -122169.84, -28446.10, 133985.20, 0.00, 0.00, 0.00, 0.00, 0.00, 0.00, 0.00, 0.00, 0
206, 20398.38, -6011.77, 33761.37, 15920.23, -187500.02, -122232.73, -28461.35, 133995.80, 0.00, 0.00, 0.00, 0.00, 0.00, 0.00, 0.00, 0.00, 0
207, 20402.29, -6032.65, 33756.25, 15904.81, -187500.02, -122293.70, -28472.57, 134006.66, 0.00, 0.00, 0.00, 0.00, 0.00, 0.00, 0.00, 0.00, 0
208, 20432.11, -6024.55, 33777.51, 15918.31, -187500.02, -122326.09, -28459.00, 134041.70, 0.00, 0.00, 0.00, 0.00, 0.00, 0.00, 0.00, 0.00, 0
209, 20459.80, -6015.55, 33798.52, 15934.42, -187500.02, -122355.23, -28449.99, 134077.67, 0.00, 0.00, 0.00, 0.00, 0.00, 0.00, 0.00, 0.00, 0
210, 20461.75, -6032.36, 33790.67, 15921.24, -187500.02, -122410.80, -28464.03, 134090.39, 0.00, 0.00, 0.00, 0.00, 0.00, 0.00, 0.00, 0.00, 0
211, 20460.70, -6054.51, 33780.88, 15904.45, -187500.02, -122472.69, -28476.50, 134098.19, 0.00, 0.00, 0.00, 0.00, 0.00, 0.00, 0.00, 0.00, 0
212, 20486.07, -6049.32, 33799.19, 15916.97, -187500.02, -122510.33, -28466.33, 134127.83, 0.00, 0.00, 0.00, 0.00, 0.00, 0.00, 0.00, 0.00, 0
213, 20517.47, -6035.62, 33824.54, 15936.97, -187500.02, -122539.21, -28452.45, 134166.39, 0.00, 0.00, 0.00, 0.00, 0.00, 0.00, 0.00, 0.00, 0
214, 20523.48, -6048.81, 33824.11, 15927.90, -187500.02, -122593.55, -28461.12, 134182.61, 0.00, 0.00, 0.00, 0.00, 0.00, 0.00, 0.00, 0.00, 0
215, 20521.31, -6073.62, 33815.24, 15906.60, -187500.02, -122658.48, -28477.04, 134188.69, 0.00, 0.00, 0.00, 0.00, 0.00, 0.00, 0.00, 0.00, 0
216, 20543.60, -6072.14, 33829.77, 15911.45, -187500.02, -122698.02, -28469.93, 134216.44, 0.00, 0.00, 0.00, 0.00, 0.00, 0.00, 0.00, 0.00, 0
217, 20575.43, -6056.09, 33854.87, 15932.17, -187500.02, -122723.21, -28453.81, 134258.09, 0.00, 0.00, 0.00, 0.00, 0.00, 0.00, 0.00, 0.00, 0
218, 20584.71, -6062.75, 33856.88, 15930.76, -187500.02, -122771.00, -28458.31, 134278.66, 0.00, 0.00, 0.00, 0.00, 0.00, 0.00, 0.00, 0.00, 0
219, 20577.71, -6088.48, 33843.42, 15910.44, -187500.02, -122836.27, -28475.83, 134282.77, 0.00, 0.00, 0.00, 0.00, 0.00, 0.00, 0.00, 0.00, 0
220, 20592.30, -6094.02, 33852.14, 15909.26, -187500.02, -122882.78, -28476.55, 134305.45, 0.00, 0.00, 0.00, 0.00, 0.00, 0.00, 0.00, 0.00, 0
221, 20625.70, -6077.89, 33879.45, 15929.13, -187500.02, -122909.84, -28461.55, 134346.75, 0.00, 0.00, 0.00, 0.00, 0.00, 0.00, 0.00, 0.00, 0
222, 20640.36, -6079.76, 33889.36, 15932.17, -187500.02, -122954.20, -28462.24, 134373.94, 0.00, 0.00, 0.00, 0.00, 0.00, 0.00, 0.00, 0.00, 0
223, 20634.55, -6105.87, 33876.75, 15911.13, -187500.02, -123021.92, -28479.63, 134379.11, 0.00, 0.00, 0.00, 0.00, 0.00, 0.00, 0.00, 0.00, 0
224, 20643.20, -6116.20, 33880.68, 15904.47, -187500.02, -123073.39, -28483.63, 134396.94, 0.00, 0.00, 0.00, 0.00, 0.00, 0.00, 0.00, 0.00, 0
225, 20676.10, -6102.23, 33906.01, 15924.23, -187500.02, -123099.61, -28466.82, 134436.94, 0.00, 0.00, 0.00, 0.00, 0.00, 0.00, 0.00, 0.00, 0
226, 20697.45, -6099.54, 33920.34, 15934.87, -187500.02, -123136.23, -28462.38, 134465.31, 0.00, 0.00, 0.00, 0.00, 0.00, 0.00, 0.00, 0.00, 0
227, 20693.15, -6123.91, 33909.83, 15917.97, -187500.02, -123201.41, -28481.11, 134470.84, 0.00, 0.00, 0.00, 0.00, 0.00, 0.00, 0.00, 0.00, 0
228, 20698.36, -6140.00, 33907.57, 15907.24, -187500.02, -123259.18, -28489.89, 134486.22, 0.00, 0.00, 0.00, 0.00, 0.00, 0.00, 0.00, 0.00, 0
229, 20731.78, -6126.86, 33930.24, 15924.63, -187500.02, -123288.80, -28476.17, 134522.98, 0.00, 0.00, 0.00, 0.00, 0.00, 0.00, 0.00, 0.00, 0
230, 20756.63, -6118.59, 33947.25, 15938.40, -187500.02, -123323.27, -28466.26, 134554.33, 0.00, 0.00, 0.00, 0.00, 0.00, 0.00, 0.00, 0.00, 0
231, 20755.23, -6138.35, 33939.43, 15921.77, -187500.02, -123384.91, -28480.46, 134563.38, 0.00, 0.00, 0.00, 0.00, 0.00, 0.00, 0.00, 0.00, 0
232, 20755.36, -6157.82, 33934.89, 15904.88, -187500.02, -123446.00, -28491.70, 134573.23, 0.00, 0.00, 0.00, 0.00, 0.00, 0.00, 0.00, 0.00, 0
233, 20782.23, -6147.65, 33956.43, 15918.00, -187500.02, -123479.59, -28478.18, 134606.83, 0.00, 0.00, 0.00, 0.00, 0.00, 0.00, 0.00, 0.00, 0
234, 20810.48, -6135.29, 33977.58, 15935.18, -187500.02, -123507.91, -28465.37, 134644.73, 0.00, 0.00, 0.00, 0.00, 0.00, 0.00, 0.00, 0.00, 0
235, 20813.07, -6150.24, 33972.66, 15923.36, -187500.02, -123564.87, -28476.01, 134657.88, 0.00, 0.00, 0.00, 0.00, 0.00, 0.00, 0.00, 0.00, 0
236, 20811.80, -6173.98, 33963.90, 15904.54, -187500.02, -123631.12, -28490.63, 134663.58, 0.00, 0.00, 0.00, 0.00, 0.00, 0.00, 0.00, 0.00, 0
237, 20836.83, -6170.96, 33982.27, 15914.02, -187500.02, -123669.34, -28484.39, 134692.64, 0.00, 0.00, 0.00, 0.00, 0.00, 0.00, 0.00, 0.00, 0
238, 20868.62, -6157.77, 34007.13, 15933.04, -187500.02, -123697.32, -28469.79, 134731.48, 0.00, 0.00, 0.00, 0.00, 0.00, 0.00, 0.00, 0.00, 0
239, 20875.84, -6170.62, 34004.80, 15926.60, -187500.02, -123750.41, -28476.10, 134749.91, 0.00, 0.00, 0.00, 0.00, 0.00, 0.00, 0.00, 0.00, 0
240, 20870.40, -6196.71, 33991.26, 15904.52, -187500.02, -123817.26, -28492.19, 134758.17, 0.00, 0.00, 0.00, 0.00, 0.00, 0.00, 0.00, 0.00, 0
241, 20888.55, -6198.97, 34004.73, 15907.67, -187500.02, -123862.27, -28488.13, 134784.69, 0.00, 0.00, 0.00, 0.00, 0.00, 0.00, 0.00, 0.00, 0
242, 20921.37, -6184.24, 34032.12, 15929.24, -187500.02, -123889.32, -28472.21, 134824.25, 0.00, 0.00, 0.00, 0.00, 0.00, 0.00, 0.00, 0.00, 0
243, 20933.48, -6190.16, 34036.95, 15928.79, -187500.02, -123936.09, -28474.51, 134846.34, 0.00, 0.00, 0.00, 0.00, 0.00, 0.00, 0.00, 0.00, 0
244, 20929.61, -6216.60, 34024.92, 15907.94, -187500.02, -124002.58, -28492.35, 134852.14, 0.00, 0.00, 0.00, 0.00, 0.00, 0.00, 0.00, 0.00, 0
245, 20944.05, -6222.70, 34031.51, 15906.31, -187500.02, -124051.98, -28492.42, 134873.73, 0.00, 0.00, 0.00, 0.00, 0.00, 0.00, 0.00, 0.00, 0
246, 20976.89, -6205.98, 34057.04, 15927.88, -187500.02, -124079.71, -28475.18, 134913.06, 0.00, 0.00, 0.00, 0.00, 0.00, 0.00, 0.00, 0.00, 0
247, 20993.65, -6204.20, 34065.55, 15933.13, -187500.02, -124121.96, -28473.08, 134937.81, 0.00, 0.00, 0.00, 0.00, 0.00, 0.00, 0.00, 0.00, 0
248, 20988.04, -6228.85, 34051.72, 15912.92, -187500.02, -124188.73, -28490.00, 134943.64, 0.00, 0.00, 0.00, 0.00, 0.00, 0.00, 0.00, 0.00, 0
249, 20996.54, -6239.82, 34052.64, 15905.23, -187500.02, -124242.28, -28493.80, 134959.73, 0.00, 0.00, 0.00, 0.00, 0.00, 0.00, 0.00, 0.00, 0
250, 21027.94, -6225.07, 34077.76, 15923.90, -187500.02, -124270.64, -28478.40, 134996.28, 0.00, 0.00, 0.00, 0.00, 0.00, 0.00, 0.00, 0.00, 0
251, 21050.31, -6220.56, 34093.32, 15933.75, -187500.02, -124306.65, -28472.30, 135026.66, 0.00, 0.00, 0.00, 0.00, 0.00, 0.00, 0.00, 0.00, 0
252, 21048.17, -6244.29, 34082.70, 15914.17, -187500.02, -124369.82, -28487.65, 135035.33, 0.00, 0.00, 0.00, 0.00, 0.00, 0.00, 0.00, 0.00, 0
253, 21052.35, -6262.94, 34078.83, 15899.51, -187500.02, -124428.42, -28497.33, 135046.98, 0.00, 0.00, 0.00, 0.00, 0.00, 0.00, 0.00, 0.00, 0
254, 21083.53, -6254.04, 34100.94, 15913.44, -187500.02, -124459.27, -28483.16, 135083.09, 0.00, 0.00, 0.00, 0.00, 0.00, 0.00, 0.00, 0.00, 0
255, 21110.24, -6243.94, 34119.09, 15928.17, -187500.02, -124491.39, -28471.40, 135116.94, 0.00, 0.00, 0.00, 0.00, 0.00, 0.00, 0.00, 0.00, 0
0, 21111.96, -6263.61, 34112.00, 15915.22, -187500.02, -124550.17, -28483.70, 135127.89, 0.00, 0.00, 0.00, 0.00, 0.00, 0.00, 0.00, 0.00, 0
1, 21111.76, -6285.96, 34105.21, 15899.42, -187500.02, -124612.06, -28497.04, 135135.72, 0.00, 0.00, 0.00, 0.00, 0.00, 0.00, 0.00, 0.00, 0
2, 21136.28, -6278.09, 34126.15, 15913.50, -187500.02, -124647.67, -28485.08, 135168.02, 0.00, 0.00, 0.00, 0.00, 0.00, 0.00, 0.00, 0.00, 0
3, 21163.79, -6265.48, 34149.57, 15932.90, -187500.02, -124679.93, -28468.83, 135205.11, 0.00, 0.00, 0.00, 0.00, 0.00, 0.00, 0.00, 0.00, 0
4, 21166.16, -6280.62, 34145.11, 15921.28, -187500.02, -124737.91, -28476.61, 135220.06, 0.00, 0.00, 0.00, 0.00, 0.00, 0.00, 0.00, 0.00, 0
5, 21162.90, -6305.61, 34133.55, 15899.49, -187500.02, -124802.91, -28492.37, 135227.13, 0.00, 0.00, 0.00, 0.00, 0.00, 0.00, 0.00, 0.00, 0
6, 21184.80, -6304.49, 34147.74, 15905.72, -187500.02, -124843.67, -28486.72, 135254.42, 0.00, 0.00, 0.00, 0.00, 0.00, 0.00, 0.00, 0.00, 0
7, 21217.28, -6291.10, 34172.11, 15925.57, -187500.02, -124873.18, -28471.34, 135293.30, 0.00, 0.00, 0.00, 0.00, 0.00, 0.00, 0.00, 0.00, 0
8, 21225.64, -6301.34, 34173.83, 15922.00, -187500.02, -124924.03, -28476.43, 135311.94, 0.00, 0.00, 0.00, 0.00, 0.00, 0.00, 0.00, 0.00, 0
9, 21220.30, -6327.64, 34162.41, 15900.56, -187500.02, -124992.56, -28492.97, 135315.69, 0.00, 0.00, 0.00, 0.00, 0.00, 0.00, 0.00, 0.00, 0
10, 21238.89, -6329.75, 34170.96, 15901.83, -187500.02, -125038.65, -28490.74, 135338.33, 0.00, 0.00, 0.00, 0.00, 0.00, 0.00, 0.00, 0.00, 0
11, 21271.39, -6313.16, 34199.35, 15923.70, -187500.02, -125063.70, -28474.20, 135377.88, 0.00, 0.00, 0.00, 0.00, 0.00, 0.00, 0.00, 0.00, 0
12, 21283.98, -6316.58, 34207.85, 15926.24, -187500.02, -125108.16, -28474.47, 135400.92, 0.00, 0.00, 0.00, 0.00, 0.00, 0.00, 0.00, 0.00, 0
13, 21279.33, -6343.45, 34195.06, 15904.34, -187500.02, -125175.29, -28493.20, 135404.97, 0.00, 0.00, 0.00, 0.00, 0.00, 0.00, 0.00, 0.00, 0
14, 21293.41, -6350.38, 34198.97, 15897.72, -187500.02, -125225.17, -28496.51, 135427.05, 0.00, 0.00, 0.00, 0.00, 0.00, 0.00, 0.00, 0.00, 0
15, 21329.24, -6334.42, 34224.68, 15916.52, -187500.02, -125250.72, -28480.39, 135467.80, 0.00, 0.00, 0.00, 0.00, 0.00, 0.00, 0.00, 0.00, 0
16, 21349.22, -6332.18, 34236.93, 15923.38, -187500.02, -125288.74, -28476.50, 135497.44, 0.00, 0.00, 0.00, 0.00, 0.00, 0.00, 0.00, 0.00, 0
17, 21344.28, -6356.14, 34226.80, 15902.46, -187500.02, -125352.20, -28493.56, 135504.67, 0.00, 0.00, 0.00, 0.00, 0.00, 0.00, 0.00, 0.00, 0
18, 21351.88, -6369.11, 34227.58, 15890.41, -187500.02, -125408.13, -28498.96, 135520.03, 0.00, 0.00, 0.00, 0.00, 0.00, 0.00, 0.00, 0.00, 0
19, 21384.49, -6355.47, 34251.72, 15907.31, -187500.02, -125437.13, -28485.71, 135558.25, 0.00, 0.00, 0.00, 0.00, 0.00, 0.00, 0.00, 0.00, 0
20, 21408.03, -6349.10, 34265.87, 15918.93, -187500.02, -125471.78, -28477.93, 135589.34, 0.00, 0.00, 0.00, 0.00, 0.00, 0.00, 0.00, 0.00, 0
21, 21405.93, -6370.72, 34254.29, 15902.21, -187500.02, -125534.48, -28492.26, 135596.89, 0.00, 0.00, 0.00, 0.00, 0.00, 0.00, 0.00, 0.00, 0
22, 21410.49, -6390.63, 34248.21, 15888.76, -187500.02, -125596.03, -28503.28, 135607.73, 0.00, 0.00, 0.00, 0.00, 0.00, 0.00, 0.00, 0.00, 0
23, 21440.75, -6380.80, 34269.76, 15903.29, -187500.02, -125629.72, -28490.34, 135642.77, 0.00, 0.00, 0.00, 0.00, 0.00, 0.00, 0.00, 0.00, 0
24, 21471.06, -6370.65, 34291.29, 15918.26, -187500.02, -125661.70, -28479.23, 135677.81, 0.00, 0.00, 0.00, 0.00, 0.00, 0.00, 0.00, 0.00, 0
25, 21474.06, -6388.28, 34286.19, 15904.90, -187500.02, -125723.17, -28492.04, 135689.80, 0.00, 0.00, 0.00, 0.00, 0.00, 0.00, 0.00, 0.00, 0
26, 21474.97, -6410.95, 34276.98, 15886.52, -187500.02, -125788.93, -28505.71, 135697.80, 0.00, 0.00, 0.00, 0.00, 0.00, 0.00, 0.00, 0.00, 0
27, 21501.91, -6405.29, 34296.36, 15895.87, -187500.02, -125826.21, -28498.74, 135729.84, 0.00, 0.00, 0.00, 0.00, 0.00, 0.00, 0.00, 0.00, 0
28, 21532.28, -6392.11, 34321.59, 15915.11, -187500.02, -125853.77, -28487.12, 135767.11, 0.00, 0.00, 0.00, 0.00, 0.00, 0.00, 0.00, 0.00, 0
29, 21536.26, -6404.38, 34321.10, 15907.92, -187500.02, -125907.84, -28496.33, 135783.17, 0.00, 0.00, 0.00, 0.00, 0.00, 0.00, 0.00, 0.00, 0
30, 21531.35, -6428.52, 34311.27, 15887.57, -187500.02, -125974.23, -28512.96, 135790.64, 0.00, 0.00, 0.00, 0.00, 0.00, 0.00, 0.00, 0.00, 0
31, 21551.84, -6427.33, 34323.41, 15892.67, -187500.02, -126016.96, -28507.62, 135817.16, 0.00, 0.00, 0.00, 0.00, 0.00, 0.00, 0.00, 0.00, 0
32, 21586.89, -6411.87, 34348.71, 15912.59, -187500.02, -126046.63, -28490.87, 135854.95, 0.00, 0.00, 0.00, 0.00, 0.00, 0.00, 0.00, 0.00, 0
33, 21599.90, -6419.55, 34352.42, 15909.86, -187500.02, -126094.55, -28494.32, 135875.17, 0.00, 0.00, 0.00, 0.00, 0.00, 0.00, 0.00, 0.00, 0
34, 21596.57, -6446.27, 34339.36, 15887.69, -187500.02, -126161.29, -28510.92, 135880.47, 0.00, 0.00, 0.00, 0.00, 0.00, 0.00, 0.00, 0.00, 0
35, 21612.77, -6452.19, 34346.54, 15887.31, -187500.02, -126207.60, -28511.24, 135903.81, 0.00, 0.00, 0.00, 0.00, 0.00, 0.00, 0.00, 0.00, 0
36, 21645.83, -6436.01, 34371.80, 15908.05, -187500.02, -126233.82, -28494.94, 135943.84, 0.00, 0.00, 0.00, 0.00, 0.00, 0.00, 0.00, 0.00, 0
37, 21662.06, -6437.68, 34380.18, 15911.33, -187500.02, -126277.61, -28494.58, 135966.11, 0.00, 0.00, 0.00, 0.00, 0.00, 0.00, 0.00, 0.00, 0
38, 21657.39, -6462.25, 34367.86, 15889.72, -187500.02, -126344.70, -28512.09, 135968.14, 0.00, 0.00, 0.00, 0.00, 0.00, 0.00, 0.00, 0.00, 0
39, 21668.76, -6472.71, 34370.59, 15883.44, -187500.02, -126397.12, -28515.21, 135985.75, 0.00, 0.00, 0.00, 0.00, 0.00, 0.00, 0.00, 0.00, 0
40, 21702.00, -6458.38, 34396.38, 15903.38, -187500.02, -126423.98, -28497.56, 136026.09, 0.00, 0.00, 0.00, 0.00, 0.00, 0.00, 0.00, 0.00, 0
41, 21720.22, -6455.21, 34410.49, 15910.55, -187500.02, -126462.74, -28490.14, 136056.06, 0.00, 0.00, 0.00, 0.00, 0.00, 0.00, 0.00, 0.00, 0
42, 21714.41, -6480.31, 34400.81, 15891.11, -187500.02, -126527.99, -28506.77, 136063.06, 0.00, 0.00, 0.00, 0.00, 0.00, 0.00, 0.00, 0.00, 0
43, 21718.36, -6496.76, 34399.58, 15880.00, -187500.02, -126586.69, -28518.46, 136077.77, 0.00, 0.00, 0.00, 0.00, 0.00, 0.00, 0.00, 0.00, 0
44, 21748.76, -6483.75, 34422.54, 15896.14, -187500.02, -126617.17, -28505.65, 136115.64, 0.00, 0.00, 0.00, 0.00, 0.00, 0.00, 0.00, 0.00, 0
45, 21775.49, -6476.17, 34440.77, 15909.19, -187500.02, -126649.80, -28496.84, 136151.02, 0.00, 0.00, 0.00, 0.00, 0.00, 0.00, 0.00, 0.00, 0
46, 21775.00, -6496.06, 34433.93, 15893.01, -187500.02, -126711.79, -28512.91, 136160.05, 0.00, 0.00, 0.00, 0.00, 0.00, 0.00, 0.00, 0.00, 0
47, 21776.28, -6514.93, 34428.86, 15876.40, -187500.02, -126775.13, -28526.59, 136170.05, 0.00, 0.00, 0.00, 0.00, 0.00, 0.00, 0.00, 0.00, 0
48, 21803.86, -6505.56, 34451.50, 15887.75, -187500.02, -126809.42, -28514.99, 136203.55, 0.00, 0.00, 0.00, 0.00, 0.00, 0.00, 0.00, 0.00, 0
49, 21831.37, -6493.47, 34473.61, 15903.31, -187500.02, -126839.75, -28501.94, 136239.52, 0.00, 0.00, 0.00, 0.00, 0.00, 0.00, 0.00, 0.00, 0
50, 21833.68, -6510.55, 34469.63, 15890.37, -187500.02, -126898.27, -28514.12, 136253.02, 0.00, 0.00, 0.00, 0.00, 0.00, 0.00, 0.00, 0.00, 0
51, 21830.90, -6535.29, 34459.75, 15869.07, -187500.02, -126963.76, -28531.02, 136261.45, 0.00, 0.00, 0.00, 0.00, 0.00, 0.00, 0.00, 0.00, 0
52, 21853.05, -6532.95, 34473.90, 15876.69, -187500.02, -127002.79, -28524.94, 136292.31, 0.00, 0.00, 0.00, 0.00, 0.00, 0.00, 0.00, 0.00, 0
53, 21883.61, -6519.24, 34496.23, 15898.46, -187500.02, -127030.46, -28510.32, 136331.89, 0.00, 0.00, 0.00, 0.00, 0.00, 0.00, 0.00, 0.00, 0
54, 21889.93, -6529.55, 34495.54, 15893.90, -187500.02, -127083.41, -28518.50, 136349.02, 0.00, 0.00, 0.00, 0.00, 0.00, 0.00, 0.00, 0.00, 0
55, 21883.92, -6553.91, 34483.22, 15873.47, -187500.02, -127150.73, -28534.39, 136353.30, 0.00, 0.00, 0.00, 0.00, 0.00, 0.00, 0.00, 0.00, 0
56, 21903.35, -6554.78, 34495.49, 15879.26, -187500.02, -127194.30, -28531.89, 136377.05, 0.00, 0.00, 0.00, 0.00, 0.00, 0.00, 0.00, 0.00, 0
57, 21937.74, -6539.16, 34521.35, 15900.58, -187500.02, -127220.47, -28518.34, 136415.63, 0.00, 0.00, 0.00, 0.00, 0.00, 0.00, 0.00, 0.00, 0
58, 21951.78, -6546.07, 34526.16, 15900.07, -187500.02, -127267.90, -28521.99, 136437.14, 0.00, 0.00, 0.00, 0.00, 0.00, 0.00, 0.00, 0.00, 0
59, 21947.15, -6573.25, 34516.59, 15878.01, -187500.02, -127336.41, -28539.38, 136442.27, 0.00, 0.00, 0.00, 0.00, 0.00, 0.00, 0.00, 0.00, 0
60, 21962.00, -6579.37, 34525.64, 15875.79, -187500.02, -127387.10, -28542.44, 136463.14, 0.00, 0.00, 0.00, 0.00, 0.00, 0.00, 0.00, 0.00, 0
61, 21996.02, -6563.66, 34552.40, 15897.32, -187500.02, -127413.97, -28528.25, 136502.33, 0.00, 0.00, 0.00, 0.00, 0.00, 0.00, 0.00, 0.00, 0
62, 22012.98, -6565.02, 34563.60, 15901.21, -187500.02, -127455.55, -28525.85, 136526.31, 0.00, 0.00, 0.00, 0.00, 0.00, 0.00, 0.00, 0.00, 0
63, 22009.79, -6590.34, 34551.08, 15877.52, -187500.02, -127521.50, -28541.52, 136532.39, 0.00, 0.00, 0.00, 0.00, 0.00, 0.00, 0.00, 0.00, 0
64, 22020.27, -6601.21, 34551.88, 15865.98, -187500.02, -127575.98, -28545.21, 136550.53, 0.00, 0.00, 0.00, 0.00, 0.00, 0.00, 0.00, 0.00, 0
65, 22053.71, -6587.55, 34578.62, 15882.70, -187500.02, -127604.23, -28525.90, 136589.05, 0.00, 0.00, 0.00, 0.00, 0.00, 0.00, 0.00, 0.00, 0
66, 22076.30, -6582.50, 34595.49, 15892.67, -187500.02, -127641.38, -28517.65, 136618.69, 0.00, 0.00, 0.00, 0.00, 0.00, 0.00, 0.00, 0.00, 0
67, 22072.21, -6603.53, 34584.34, 15874.50, -187500.02, -127705.57, -28533.39, 136625.25, 0.00, 0.00, 0.00, 0.00, 0.00, 0.00, 0.00, 0.00, 0
68, 22076.55, -6621.28, 34580.38, 15861.87, -187500.02, -127766.16, -28540.65, 136634.98, 0.00, 0.00, 0.00, 0.00, 0.00, 0.00, 0.00, 0.00, 0
69, 22108.13, -6609.37, 34604.99, 15878.12, -187500.02, -127797.93, -28526.23, 136668.00, 0.00, 0.00, 0.00, 0.00, 0.00, 0.00, 0.00, 0.00, 0
70, 22133.61, -6599.06, 34625.78, 15892.60, -187500.02, -127830.54, -28515.59, 136699.02, 0.00, 0.00, 0.00, 0.00, 0.00, 0.00, 0.00, 0.00, 0
71, 22132.72, -6616.43, 34617.98, 15877.83, -187500.02, -127892.38, -28527.55, 136708.38, 0.00, 0.00, 0.00, 0.00, 0.00, 0.00, 0.00, 0.00, 0
72, 22133.79, -6635.70, 34610.02, 15859.97, -187500.02, -127956.24, -28538.35, 136719.27, 0.00, 0.00, 0.00, 0.00, 0.00, 0.00, 0.00, 0.00, 0
73, 22163.56, -6627.16, 34629.00, 15871.33, -187500.02, -127993.15, -28528.83, 136752.38, 0.00, 0.00, 0.00, 0.00, 0.00, 0.00, 0.00, 0.00, 0
74, 22195.88, -6613.10, 34653.07, 15890.55, -187500.02, -128024.51, -28517.20, 136788.00, 0.00, 0.00, 0.00, 0.00, 0.00, 0.00, 0.00, 0.00, 0
75, 22200.13, -6625.97, 34651.44, 15881.27, -187500.02, -128084.56, -28525.18, 136800.47, 0.00, 0.00, 0.00, 0.00, 0.00, 0.00, 0.00, 0.00, 0
76, 22197.32, -6649.22, 34641.56, 15861.85, -187500.02, -128153.59, -28540.88, 136807.78, 0.00, 0.00, 0.00, 0.00, 0.00, 0.00, 0.00, 0.00, 0
77, 22220.38, -6647.36, 34655.57, 15870.12, -187500.02, -128196.05, -28535.13, 136838.02, 0.00, 0.00, 0.00, 0.00, 0.00, 0.00, 0.00, 0.00, 0
78, 22252.66, -6634.27, 34677.70, 15890.93, -187500.02, -128223.41, -28520.11, 136877.03, 0.00, 0.00, 0.00, 0.00, 0.00, 0.00, 0.00, 0.00, 0
79, 22260.95, -6644.82, 34677.66, 15886.23, -187500.02, -128274.58, -28525.65, 136895.02, 0.00, 0.00, 0.00, 0.00, 0.00, 0.00, 0.00, 0.00, 0
80, 22257.62, -6670.23, 34665.43, 15864.62, -187500.02, -128343.58, -28542.93, 136900.72, 0.00, 0.00, 0.00, 0.00, 0.00, 0.00, 0.00, 0.00, 0
81, 22274.74, -6672.06, 34675.40, 15866.14, -187500.02, -128390.43, -28540.32, 136925.50, 0.00, 0.00, 0.00, 0.00, 0.00, 0.00, 0.00, 0.00, 0
82, 22307.91, -6656.55, 34702.60, 15885.74, -187500.02, -128417.30, -28524.76, 136965.72, 0.00, 0.00, 0.00, 0.00, 0.00, 0.00, 0.00, 0.00, 0
83, 22322.87, -6660.69, 34708.61, 15884.96, -187500.02, -128462.89, -28526.95, 136989.41, 0.00, 0.00, 0.00, 0.00, 0.00, 0.00, 0.00, 0.00, 0
84, 22318.46, -6685.94, 34694.55, 15861.56, -187500.02, -128530.62, -28544.67, 136994.50, 0.00, 0.00, 0.00, 0.00, 0.00, 0.00, 0.00, 0.00, 0
85, 22331.96, -6693.88, 34698.51, 15857.22, -187500.02, -128581.09, -28548.41, 137013.23, 0.00, 0.00, 0.00, 0.00, 0.00, 0.00, 0.00, 0.00, 0
86, 22366.00, -6677.52, 34724.84, 15877.70, -187500.02, -128607.64, -28533.99, 137050.97, 0.00, 0.00, 0.00, 0.00, 0.00, 0.00, 0.00, 0.00, 0
87, 22383.80, -6676.56, 34736.71, 15884.62, -187500.02, -128648.77, -28531.58, 137077.97, 0.00, 0.00, 0.00, 0.00, 0.00, 0.00, 0.00, 0.00, 0
88, 22378.65, -6701.95, 34724.77, 15865.13, -187500.02, -128715.63, -28547.85, 137084.23, 0.00, 0.00, 0.00, 0.00, 0.00, 0.00, 0.00, 0.00, 0
89, 22386.93, -6716.27, 34726.18, 15856.82, -187500.02, -128772.33, -28553.59, 137098.08, 0.00, 0.00, 0.00, 0.00, 0.00, 0.00, 0.00, 0.00, 0
90, 22418.64, -6703.78, 34750.97, 15875.01, -187500.02, -128802.70, -28539.85, 137136.52, 0.00, 0.00, 0.00, 0.00, 0.00, 0.00, 0.00, 0.00, 0
91, 22440.86, -6697.30, 34767.71, 15887.75, -187500.02, -128838.63, -28533.21, 137167.80, 0.00, 0.00, 0.00, 0.00, 0.00, 0.00, 0.00, 0.00, 0
92, 22436.63, -6719.34, 34759.73, 15870.81, -187500.02, -128903.42, -28550.60, 137175.42, 0.00, 0.00, 0.00, 0.00, 0.00, 0.00, 0.00, 0.00, 0
93, 22439.16, -6738.31, 34756.43, 15854.83, -187500.02, -128965.52, -28561.08, 137186.17, 0.00, 0.00, 0.00, 0.00, 0.00, 0.00, 0.00, 0.00, 0
94, 22469.29, -6727.36, 34780.09, 15868.87, -187500.02, -128998.51, -28548.41, 137220.81, 0.00, 0.00, 0.00, 0.00, 0.00, 0.00, 0.00, 0.00, 0
95, 22498.01, -6717.37, 34801.69, 15884.33, -187500.02, -129030.85, -28537.63, 137255.59, 0.00, 0.00, 0.00, 0.00, 0.00, 0.00, 0.00, 0.00, 0
96, 22499.51, -6734.74, 34795.05, 15870.14, -187500.02, -129090.53, -28549.35, 137266.70, 0.00, 0.00, 0.00, 0.00, 0.00, 0.00, 0.00, 0.00, 0
97, 22499.00, -6756.42, 34785.24, 15851.52, -187500.02, -129156.69, -28561.82, 137275.84, 0.00, 0.00, 0.00, 0.00, 0.00, 0.00, 0.00, 0.00, 0
98, 22524.05, -6751.81, 34801.75, 15861.83, -187500.02, -129197.28, -28553.84, 137308.02, 0.00, 0.00, 0.00, 0.00, 0.00, 0.00, 0.00, 0.00, 0
99, 22553.83, -6738.36, 34823.05, 15881.34, -187500.02, -129226.63, -28541.14, 137346.56, 0.00, 0.00, 0.00, 0.00, 0.00, 0.00, 0.00, 0.00, 0
100, 22558.21, -6751.19, 34819.57, 15873.78, -187500.02, -129280.34, -28548.41, 137360.16, 0.00, 0.00, 0.00, 0.00, 0.00, 0.00, 0.00, 0.00, 0
101, 22555.10, -6776.80, 34807.68, 15851.43, -187500.02, -129345.67, -28563.54, 137364.42, 0.00, 0.00, 0.00, 0.00, 0.00, 0.00, 0.00, 0.00, 0
102, 22577.09, -6776.33, 34820.62, 15854.58, -187500.02, -129387.23, -28557.17, 137389.94, 0.00, 0.00, 0.00, 0.00, 0.00, 0.00, 0.00, 0.00, 0
103, 22610.87, -6760.71, 34846.61, 15873.47, -187500.02, -129415.08, -28541.16, 137428.64, 0.00, 0.00, 0.00, 0.00, 0.00, 0.00, 0.00, 0.00, 0
104, 22620.79, -6768.38, 34851.18, 15870.39, -187500.02, -129465.97, -28548.18, 137447.20, 0.00, 0.00, 0.00, 0.00, 0.00, 0.00, 0.00, 0.00, 0
105, 22616.66, -6794.21, 34838.84, 15848.57, -187500.02, -129534.68, -28566.04, 137449.33, 0.00, 0.00, 0.00, 0.00, 0.00, 0.00, 0.00, 0.00, 0
106, 22634.02, -6799.71, 34849.01, 15848.30, -187500.02, -129581.95, -28563.88, 137471.03, 0.00, 0.00, 0.00, 0.00, 0.00, 0.00, 0.00, 0.00, 0
107, 22667.51, -6783.13, 34874.33, 15869.22, -187500.02, -129608.75, -28545.72, 137511.44, 0.00, 0.00, 0.00, 0.00, 0.00, 0.00, 0.00, 0.00, 0
108, 22682.79, -6783.62, 34880.57, 15873.98, -187500.02, -129653.66, -28543.94, 137536.11, 0.00, 0.00, 0.00, 0.00, 0.00, 0.00, 0.00, 0.00, 0
109, 22680.02, -6809.21, 34869.57, 15854.79, -187500.02, -129722.39, -28560.99, 137537.39, 0.00, 0.00, 0.00, 0.00, 0.00, 0.00, 0.00, 0.00, 0
110, 22692.45, -6819.23, 34875.56, 15849.42, -187500.02, -129776.48, -28564.05, 137552.23, 0.00, 0.00, 0.00, 0.00, 0.00, 0.00, 0.00, 0.00, 0
111, 22725.08, -6802.80, 34903.32, 15869.36, -187500.02, -129805.67, -28547.45, 137587.67, 0.00, 0.00, 0.00, 0.00, 0.00, 0.00, 0.00, 0.00, 0
112, 22744.06, -6798.77, 34915.75, 15877.87, -187500.02, -129845.84, -28541.97, 137615.08, 0.00, 0.00, 0.00, 0.00, 0.00, 0.00, 0.00, 0.00, 0
113, 22740.13, -6822.83, 34902.98, 15859.19, -187500.02, -129912.52, -28559.81, 137622.03, 0.00, 0.00, 0.00, 0.00, 0.00, 0.00, 0.00, 0.00, 0
114, 22745.34, -6839.23, 34901.09, 15849.08, -187500.02, -129971.91, -28567.83, 137635.52, 0.00, 0.00, 0.00, 0.00, 0.00, 0.00, 0.00, 0.00, 0
115, 22775.38, -6829.04, 34924.87, 15867.99, -187500.02, -130003.13, -28551.92, 137671.44, 0.00, 0.00, 0.00, 0.00, 0.00, 0.00, 0.00, 0.00, 0
116, 22798.02, -6821.75, 34941.77, 15883.04, -187500.02, -130038.47, -28541.90, 137703.59, 0.00, 0.00, 0.00, 0.00, 0.00, 0.00, 0.00, 0.00, 0
117, 22794.20, -6843.19, 34934.23, 15866.79, -187500.02, -130103.22, -28556.50, 137712.52, 0.00, 0.00, 0.00, 0.00, 0.00, 0.00, 0.00, 0.00, 0
118, 22795.07, -6863.04, 34928.46, 15850.38, -187500.02, -130169.38, -28569.44, 137721.75, 0.00, 0.00, 0.00, 0.00, 0.00, 0.00, 0.00, 0.00, 0
119, 22822.65, -6851.84, 34946.79, 15862.21, -187500.02, -130207.42, -28558.87, 137754.98, 0.00, 0.00, 0.00, 0.00, 0.00, 0.00, 0.00, 0.00, 0
120, 22850.70, -6838.11, 34968.41, 15877.70, -187500.02, -130240.80, -28545.66, 137789.97, 0.00, 0.00, 0.00, 0.00, 0.00, 0.00, 0.00, 0.00, 0
121, 22852.33, -6853.78, 34963.31, 15864.80, -187500.02, -130299.58, -28556.16, 137802.20, 0.00, 0.00, 0.00, 0.00, 0.00, 0.00, 0.00, 0.00, 0
122, 22851.66, -6877.52, 34954.30, 15845.29, -187500.02, -130363.66, -28569.87, 137807.84, 0.00, 0.00, 0.00, 0.00, 0.00, 0.00, 0.00, 0.00, 0
123, 22877.19, -6874.32, 34971.85, 15854.81, -187500.02, -130403.05, -28558.80, 137836.86, 0.00, 0.00, 0.00, 0.00, 0.00, 0.00, 0.00, 0.00, 0
124, 22908.66, -6859.79, 34995.86, 15876.09, -187500.02, -130432.88, -28542.80, 137873.73, 0.00, 0.00, 0.00, 0.00, 0.00, 0.00, 0.00, 0.00, 0
125, 22915.10, -6871.51, 34994.47, 15870.36, -187500.02, -130487.87, -28550.08, 137890.98, 0.00, 0.00, 0.00, 0.00, 0.00, 0.00, 0.00, 0.00, 0
126, 22908.82, -6896.61, 34981.02, 15847.52, -187500.02, -130557.18, -28567.72, 137897.67, 0.00, 0.00, 0.00, 0.00, 0.00, 0.00, 0.00, 0.00, 0
127, 22925.83, -6897.57, 34992.39, 15849.58, -187500.02, -130603.07, -28563.36, 137924.00, 0.00, 0.00, 0.00, 0.00, 0.00, 0.00, 0.00, 0.00, 0
128, 22958.30, -6881.81, 35018.19, 15870.34, -187500.02, -130631.63, -28547.51, 137963.86, 0.00, 0.00, 0.00, 0.00, 0.00, 0.00, 0.00, 0.00, 0
129, 22969.01, -6888.74, 35021.18, 15870.07, -187500.02, -130678.95, -28548.63, 137985.03, 0.00, 0.00, 0.00, 0.00, 0.00, 0.00, 0.00, 0.00, 0
130, 22962.84, -6916.21, 35007.30, 15848.82, -187500.02, -130746.88, -28565.13, 137989.00, 0.00, 0.00, 0.00, 0.00, 0.00, 0.00, 0.00, 0.00, 0
131, 22976.47, -6923.07, 35015.79, 15846.29, -187500.02, -130799.81, -28568.28, 138010.38, 0.00, 0.00, 0.00, 0.00, 0.00, 0.00, 0.00, 0.00, 0
132, 23010.76, -6907.83, 35044.18, 15867.17, -187500.02, -130831.82, -28554.06, 138051.44, 0.00, 0.00, 0.00, 0.00, 0.00, 0.00, 0.00, 0.00, 0
133, 23028.24, -6907.45, 35054.15, 15870.83, -187500.02, -130874.76, -28554.11, 138076.53, 0.00, 0.00, 0.00, 0.00, 0.00, 0.00, 0.00, 0.00, 0
134, 23024.06, -6933.82, 35043.09, 15849.02, -187500.02, -130941.32, -28574.94, 138081.05, 0.00, 0.00, 0.00, 0.00, 0.00, 0.00, 0.00, 0.00, 0
135, 23033.90, -6946.32, 35047.09, 15841.26, -187500.02, -130996.95, -28581.38, 138097.88, 0.00, 0.00, 0.00, 0.00, 0.00, 0.00, 0.00, 0.00, 0
136, 23069.06, -6932.86, 35074.56, 15860.33, -187500.02, -131026.97, -28566.00, 138135.08, 0.00, 0.00, 0.00, 0.00, 0.00, 0.00, 0.00, 0.00, 0
137, 23091.25, -6929.67, 35090.92, 15869.72, -187500.02, -131065.77, -28559.92, 138164.38, 0.00, 0.00, 0.00, 0.00, 0.00, 0.00, 0.00, 0.00, 0
138, 23087.27, -6953.60, 35081.24, 15850.99, -187500.02, -131131.63, -28575.97, 138170.50, 0.00, 0.00, 0.00, 0.00, 0.00, 0.00, 0.00, 0.00, 0
139, 23089.89, -6970.03, 35078.27, 15837.28, -187500.02, -131193.45, -28585.60, 138182.59, 0.00, 0.00, 0.00, 0.00, 0.00, 0.00, 0.00, 0.00, 0
140, 23118.10, -6959.89, 35099.68, 15853.22, -187500.02, -131227.63, -28571.65, 138218.06, 0.00, 0.00, 0.00, 0.00, 0.00, 0.00, 0.00, 0.00, 0
141, 23143.69, -6950.99, 35119.42, 15867.01, -187500.02, -131260.77, -28560.43, 138251.55, 0.00, 0.00, 0.00, 0.00, 0.00, 0.00, 0.00, 0.00, 0
142, 23144.81, -6968.87, 35112.98, 15853.09, -187500.02, -131323.17, -28573.33, 138261.88, 0.00, 0.00, 0.00, 0.00, 0.00, 0.00, 0.00, 0.00, 0
143, 23147.87, -6987.45, 35106.03, 15837.40, -187500.02, -131389.27, -28587.28, 138271.00, 0.00, 0.00, 0.00, 0.00, 0.00, 0.00, 0.00, 0.00, 0
144, 23177.30, -6979.27, 35125.70, 15850.65, -187500.02, -131427.94, -28577.73, 138304.30, 0.00, 0.00, 0.00, 0.00, 0.00, 0.00, 0.00, 0.00, 0
145, 23207.99, -6964.69, 35148.70, 15869.07, -187500.02, -131460.64, -28563.76, 138341.17, 0.00, 0.00, 0.00, 0.00, 0.00, 0.00, 0.00, 0.00, 0
146, 23211.41, -6978.93, 35145.93, 15857.36, -187500.02, -131520.05, -28572.61, 138353.67, 0.00, 0.00, 0.00, 0.00, 0.00, 0.00, 0.00, 0.00, 0
147, 23207.35, -7002.91, 35135.45, 15837.01, -187500.02, -131588.00, -28588.64, 138359.11, 0.00, 0.00, 0.00, 0.00, 0.00, 0.00, 0.00, 0.00, 0
148, 23230.12, -7001.01, 35151.52, 15843.27, -187500.02, -131628.61, -28583.19, 138386.55, 0.00, 0.00, 0.00, 0.00, 0.00, 0.00, 0.00, 0.00, 0
149, 23263.43, -6985.61, 35175.86, 15863.41, -187500.02, -131657.33, -28568.37, 138424.66, 0.00, 0.00, 0.00, 0.00, 0.00, 0.00, 0.00, 0.00, 0
150, 23272.59, -6996.14, 35177.11, 15858.83, -187500.02, -131711.09, -28572.68, 138444.44, 0.00, 0.00, 0.00, 0.00, 0.00, 0.00, 0.00, 0.00, 0
151, 23267.16, -7023.50, 35165.28, 15838.24, -187500.02, -131778.64, -28589.15, 138450.80, 0.00, 0.00, 0.00, 0.00, 0.00, 0.00, 0.00, 0.00, 0
152, 23283.39, -7027.41, 35175.77, 15842.16, -187500.02, -131824.23, -28586.52, 138475.41, 0.00, 0.00, 0.00, 0.00, 0.00, 0.00, 0.00, 0.00, 0
153, 23316.67, -7013.57, 35202.99, 15864.51, -187500.02, -131851.64, -28570.04, 138512.64, 0.00, 0.00, 0.00, 0.00, 0.00, 0.00, 0.00, 0.00, 0
154, 23329.77, -7017.40, 35210.79, 15866.90, -187500.02, -131900.33, -28570.58, 138533.97, 0.00, 0.00, 0.00, 0.00, 0.00, 0.00, 0.00, 0.00, 0
155, 23323.44, -7042.50, 35198.59, 15845.73, -187500.02, -131969.75, -28588.75, 138539.48, 0.00, 0.00, 0.00, 0.00, 0.00, 0.00, 0.00, 0.00, 0
156, 23337.19, -7052.44, 35204.22, 15841.78, -187500.02, -132021.31, -28592.08, 138558.61, 0.00, 0.00, 0.00, 0.00, 0.00, 0.00, 0.00, 0.00, 0
157, 23371.52, -7038.30, 35231.18, 15862.74, -187500.02, -132048.94, -28575.50, 138596.45, 0.00, 0.00, 0.00, 0.00, 0.00, 0.00, 0.00, 0.00, 0
158, 23389.00, -7037.07, 35243.16, 15870.03, -187500.02, -132091.00, -28573.29, 138623.41, 0.00, 0.00, 0.00, 0.00, 0.00, 0.00, 0.00, 0.00, 0
159, 23381.44, -7060.89, 35231.22, 15850.38, -187500.02, -132159.63, -28590.38, 138628.06, 0.00, 0.00, 0.00, 0.00, 0.00, 0.00, 0.00, 0.00, 0
160, 23388.55, -7072.67, 35231.76, 15840.14, -187500.02, -132219.33, -28597.40, 138644.17, 0.00, 0.00, 0.00, 0.00, 0.00, 0.00, 0.00, 0.00, 0
161, 23420.80, -7057.94, 35258.78, 15857.76, -187500.02, -132251.59, -28581.64, 138682.78, 0.00, 0.00, 0.00, 0.00, 0.00, 0.00, 0.00, 0.00, 0
162, 23441.82, -7051.80, 35276.62, 15868.80, -187500.02, -132288.95, -28573.17, 138713.77, 0.00, 0.00, 0.00, 0.00, 0.00, 0.00, 0.00, 0.00, 0
163, 23435.87, -7075.85, 35266.25, 15851.48, -187500.02, -132353.14, -28587.93, 138720.48, 0.00, 0.00, 0.00, 0.00, 0.00, 0.00, 0.00, 0.00, 0
164, 23439.00, -7096.68, 35261.86, 15838.47, -187500.02, -132416.77, -28598.14, 138731.11, 0.00, 0.00, 0.00, 0.00, 0.00, 0.00, 0.00, 0.00, 0
165, 23467.68, -7086.42, 35284.15, 15853.33, -187500.02, -132451.81, -28585.55, 138766.67, 0.00, 0.00, 0.00, 0.00, 0.00, 0.00, 0.00, 0.00, 0
166, 23493.00, -7075.42, 35304.27, 15868.31, -187500.02, -132485.47, -28575.01, 138801.05, 0.00, 0.00, 0.00, 0.00, 0.00, 0.00, 0.00, 0.00, 0
167, 23493.76, -7094.20, 35297.27, 15854.49, -187500.02, -132545.30, -28589.31, 138809.53, 0.00, 0.00, 0.00, 0.00, 0.00, 0.00, 0.00, 0.00, 0
168, 23494.61, -7115.95, 35287.28, 15834.85, -187500.02, -132609.75, -28605.76, 138814.91, 0.00, 0.00, 0.00, 0.00, 0.00, 0.00, 0.00, 0.00, 0
169, 23519.91, -7109.69, 35304.76, 15844.88, -187500.02, -132647.42, -28598.83, 138844.14, 0.00, 0.00, 0.00, 0.00, 0.00, 0.00, 0.00, 0.00, 0
170, 23549.55, -7098.15, 35327.94, 15862.76, -187500.02, -132679.14, -28584.33, 138881.73, 0.00, 0.00, 0.00, 0.00, 0.00, 0.00, 0.00, 0.00, 0
171, 23555.47, -7113.33, 35324.43, 15853.73, -187500.02, -132736.39, -28593.27, 138896.84, 0.00, 0.00, 0.00, 0.00, 0.00, 0.00, 0.00, 0.00, 0
172, 23551.70, -7139.35, 35313.97, 15831.09, -187500.02, -132804.14, -28609.34, 138902.16, 0.00, 0.00, 0.00, 0.00, 0.00, 0.00, 0.00, 0.00, 0
173, 23572.53, -7138.23, 35328.65, 15834.11, -187500.02, -132848.23, -28604.35, 138928.89, 0.00, 0.00, 0.00, 0.00, 0.00, 0.00, 0.00, 0.00, 0
174, 23605.07, -7122.72, 35354.96, 15853.73, -187500.02, -132877.89, -28587.75, 138968.17, 0.00, 0.00, 0.00, 0.00, 0.00, 0.00, 0.00, 0.00, 0
175, 23614.68, -7129.96, 35358.52, 15851.37, -187500.02, -132930.14, -28591.99, 138986.86, 0.00, 0.00, 0.00, 0.00, 0.00, 0.00, 0.00, 0.00, 0
176, 23609.61, -7155.55, 35346.00, 15829.86, -187500.02, -132999.84, -28612.02, 138990.66, 0.00, 0.00, 0.00, 0.00, 0.00, 0.00, 0.00, 0.00, 0
177, 23626.42, -7161.52, 35356.14, 15829.53, -187500.02, -133049.20, -28611.01, 139012.56, 0.00, 0.00, 0.00, 0.00, 0.00, 0.00, 0.00, 0.00, 0
178, 23659.57, -7145.88, 35381.89, 15849.93, -187500.02, -133078.08, -28591.81, 139052.44, 0.00, 0.00, 0.00, 0.00, 0.00, 0.00, 0.00, 0.00, 0
179, 23673.51, -7147.98, 35387.41, 15851.59, -187500.02, -133125.23, -28590.25, 139077.16, 0.00, 0.00, 0.00, 0.00, 0.00, 0.00, 0.00, 0.00, 0
180, 23666.36, -7173.17, 35373.38, 15831.63, -187500.02, -133193.95, -28608.89, 139082.41, 0.00, 0.00, 0.00, 0.00, 0.00, 0.00, 0.00, 0.00, 0
181, 23678.10, -7183.81, 35376.75, 15828.07, -187500.02, -133248.38, -28611.77, 139099.84, 0.00, 0.00, 0.00, 0.00, 0.00, 0.00, 0.00, 0.00, 0
182, 23712.43, -7167.85, 35403.17, 15848.57, -187500.02, -133281.03, -28594.65, 139138.00, 0.00, 0.00, 0.00, 0.00, 0.00, 0.00, 0.00, 0.00, 0
183, 23733.82, -7162.75, 35415.98, 15856.80, -187500.02, -133323.97, -28588.53, 139166.47, 0.00, 0.00, 0.00, 0.00, 0.00, 0.00, 0.00, 0.00, 0
184, 23727.29, -7185.50, 35403.13, 15837.19, -187500.02, -133392.09, -28604.06, 139173.41, 0.00, 0.00, 0.00, 0.00, 0.00, 0.00, 0.00, 0.00, 0
185, 23732.81, -7199.65, 35401.90, 15826.46, -187500.02, -133451.17, -28612.06, 139189.25, 0.00, 0.00, 0.00, 0.00, 0.00, 0.00, 0.00, 0.00, 0
186, 23764.33, -7185.77, 35426.33, 15842.78, -187500.02, -133484.81, -28597.56, 139226.02, 0.00, 0.00, 0.00, 0.00, 0.00, 0.00, 0.00, 0.00, 0
187, 23787.46, -7178.17, 35443.54, 15856.44, -187500.02, -133524.09, -28586.34, 139257.48, 0.00, 0.00, 0.00, 0.00, 0.00, 0.00, 0.00, 0.00, 0
188, 23784.07, -7198.92, 35435.61, 15841.60, -187500.02, -133588.95, -28599.32, 139266.45, 0.00, 0.00, 0.00, 0.00, 0.00, 0.00, 0.00, 0.00, 0
189, 23785.07, -7218.45, 35429.77, 15826.51, -187500.02, -133652.30, -28611.37, 139275.70, 0.00, 0.00, 0.00, 0.00, 0.00, 0.00, 0.00, 0.00, 0
190, 23816.05, -7208.97, 35450.45, 15840.23, -187500.02, -133689.11, -28601.40, 139307.95, 0.00, 0.00, 0.00, 0.00, 0.00, 0.00, 0.00, 0.00, 0
191, 23846.94, -7195.45, 35471.28, 15856.77, -187500.02, -133722.13, -28591.17, 139342.58, 0.00, 0.00, 0.00, 0.00, 0.00, 0.00, 0.00, 0.00, 0
192, 23849.58, -7208.82, 35468.11, 15843.45, -187500.02, -133781.05, -28599.95, 139355.44, 0.00, 0.00, 0.00, 0.00, 0.00, 0.00, 0.00, 0.00, 0
193, 23847.66, -7230.99, 35460.28, 15823.65, -187500.02, -133848.52, -28613.65, 139361.25, 0.00, 0.00, 0.00, 0.00, 0.00, 0.00, 0.00, 0.00, 0
194, 23872.91, -7225.92, 35477.29, 15834.22, -187500.02, -133890.55, -28605.47, 139390.23, 0.00, 0.00, 0.00, 0.00, 0.00, 0.00, 0.00, 0.00, 0
195, 23904.43, -7212.30, 35501.99, 15853.26, -187500.02, -133923.33, -28590.03, 139426.80, 0.00, 0.00, 0.00, 0.00, 0.00, 0.00, 0.00, 0.00, 0
196, 23910.20, -7224.75, 35500.52, 15845.42, -187500.02, -133980.47, -28595.95, 139441.44, 0.00, 0.00, 0.00, 0.00, 0.00, 0.00, 0.00, 0.00, 0
197, 23905.77, -7250.01, 35488.02, 15823.83, -187500.02, -134051.52, -28614.01, 139446.73, 0.00, 0.00, 0.00, 0.00, 0.00, 0.00, 0.00, 0.00, 0
198, 23925.22, -7250.23, 35499.78, 15827.52, -187500.02, -134099.31, -28611.15, 139473.06, 0.00, 0.00, 0.00, 0.00, 0.00, 0.00, 0.00, 0.00, 0
199, 23958.74, -7233.20, 35526.38, 15847.97, -187500.02, -134127.98, -28594.90, 139510.95, 0.00, 0.00, 0.00, 0.00, 0.00, 0.00, 0.00, 0.00, 0
200, 23971.62, -7238.03, 35531.74, 15846.31, -187500.02, -134175.89, -28597.47, 139532.73, 0.00, 0.00, 0.00, 0.00, 0.00, 0.00, 0.00, 0.00, 0
201, 23967.35, -7265.41, 35518.95, 15825.24, -187500.02, -134245.73, -28615.46, 139538.45, 0.00, 0.00, 0.00, 0.00, 0.00, 0.00, 0.00, 0.00, 0
202, 23981.32, -7273.23, 35527.52, 15823.87, -187500.02, -134297.69, -28617.99, 139557.78, 0.00, 0.00, 0.00, 0.00, 0.00, 0.00, 0.00, 0.00, 0
203, 24013.08, -7257.92, 35556.10, 15845.46, -187500.02, -134328.50, -28602.32, 139597.22, 0.00, 0.00, 0.00, 0.00, 0.00, 0.00, 0.00, 0.00, 0
204, 24028.21, -7259.42, 35566.86, 15850.76, -187500.02, -134373.45, -28601.76, 139622.83, 0.00, 0.00, 0.00, 0.00, 0.00, 0.00, 0.00, 0.00, 0
205, 24023.03, -7284.63, 35554.00, 15830.26, -187500.02, -134442.31, -28617.34, 139627.08, 0.00, 0.00, 0.00, 0.00, 0.00, 0.00, 0.00, 0.00, 0
206, 24033.94, -7296.66, 35554.49, 15821.66, -187500.02, -134499.05, -28619.51, 139642.72, 0.00, 0.00, 0.00, 0.00, 0.00, 0.00, 0.00, 0.00, 0
207, 24067.22, -7283.11, 35579.33, 15838.69, -187500.02, -134530.23, -28604.44, 139679.42, 0.00, 0.00, 0.00, 0.00, 0.00, 0.00, 0.00, 0.00, 0
208, 24088.61, -7278.02, 35594.04, 15846.87, -187500.02, -134571.02, -28598.70, 139708.59, 0.00, 0.00, 0.00, 0.00, 0.00, 0.00, 0.00, 0.00, 0
209, 24085.70, -7300.48, 35583.37, 15826.06, -187500.02, -134636.91, -28613.79, 139714.22, 0.00, 0.00, 0.00, 0.00, 0.00, 0.00, 0.00, 0.00, 0
210, 24092.25, -7317.16, 35580.09, 15813.19, -187500.02, -134696.80, -28622.50, 139725.41, 0.00, 0.00, 0.00, 0.00, 0.00, 0.00, 0.00, 0.00, 0
211, 24124.91, -7305.67, 35604.32, 15830.96, -187500.02, -134730.66, -28608.58, 139760.48, 0.00, 0.00, 0.00, 0.00, 0.00, 0.00, 0.00, 0.00, 0
212, 24152.91, -7296.37, 35625.35, 15845.11, -187500.02, -134765.91, -28599.99, 139792.19, 0.00, 0.00, 0.00, 0.00, 0.00, 0.00, 0.00, 0.00, 0
213, 24152.38, -7315.93, 35619.98, 15829.37, -187500.02, -134829.70, -28612.98, 139800.95, 0.00, 0.00, 0.00, 0.00, 0.00, 0.00, 0.00, 0.00, 0
214, 24152.47, -7336.69, 35613.84, 15813.39, -187500.02, -134894.77, -28623.29, 139808.56, 0.00, 0.00, 0.00, 0.00, 0.00, 0.00, 0.00, 0.00, 0
215, 24180.00, -7328.94, 35634.58, 15827.76, -187500.02, -134933.41, -28611.60, 139841.58, 0.00, 0.00, 0.00, 0.00, 0.00, 0.00, 0.00, 0.00, 0
216, 24211.21, -7315.77, 35658.25, 15846.02, -187500.02, -134966.33, -28597.58, 139879.31, 0.00, 0.00, 0.00, 0.00, 0.00, 0.00, 0.00, 0.00, 0
217, 24214.78, -7330.57, 35655.55, 15836.46, -187500.02, -135026.59, -28606.92, 139891.88, 0.00, 0.00, 0.00, 0.00, 0.00, 0.00, 0.00, 0.00, 0
218, 24212.26, -7354.37, 35645.53, 15817.73, -187500.02, -135096.11, -28622.26, 139896.23, 0.00, 0.00, 0.00, 0.00, 0.00, 0.00, 0.00, 0.00, 0
219, 24236.76, -7352.40, 35659.75, 15826.20, -187500.02, -135140.55, -28615.91, 139923.50, 0.00, 0.00, 0.00, 0.00, 0.00, 0.00, 0.00, 0.00, 0
220, 24269.50, -7336.89, 35684.87, 15848.64, -187500.02, -135171.55, -28601.94, 139962.17, 0.00, 0.00, 0.00, 0.00, 0.00, 0.00, 0.00, 0.00, 0
221, 24278.91, -7346.15, 35686.08, 15845.78, -187500.02, -135226.06, -28609.32, 139979.38, 0.00, 0.00, 0.00, 0.00, 0.00, 0.00, 0.00, 0.00, 0
222, 24275.98, -7371.31, 35673.00, 15824.95, -187500.02, -135295.89, -28624.58, 139983.47, 0.00, 0.00, 0.00, 0.00, 0.00, 0.00, 0.00, 0.00, 0
223, 24295.50, -7372.99, 35682.28, 15826.40, -187500.02, -135344.17, -28618.99, 140007.41, 0.00, 0.00, 0.00, 0.00, 0.00, 0.00, 0.00, 0.00, 0
224, 24331.17, -7357.23, 35707.65, 15848.93, -187500.02, -135376.69, -28603.59, 140046.81, 0.00, 0.00, 0.00, 0.00, 0.00, 0.00, 0.00, 0.00, 0
225, 24343.82, -7362.26, 35715.40, 15849.55, -187500.02, -135426.33, -28604.98, 140068.34, 0.00, 0.00, 0.00, 0.00, 0.00, 0.00, 0.00, 0.00, 0
226, 24337.38, -7388.48, 35703.47, 15827.52, -187500.02, -135495.48, -28622.53, 140070.94, 0.00, 0.00, 0.00, 0.00, 0.00, 0.00, 0.00, 0.00, 0
227, 24350.19, -7396.64, 35709.66, 15823.04, -187500.02, -135546.38, -28626.53, 140089.28, 0.00, 0.00, 0.00, 0.00, 0.00, 0.00, 0.00, 0.00, 0
228, 24383.94, -7382.60, 35738.40, 15843.70, -187500.02, -135575.44, -28611.48, 140128.84, 0.00, 0.00, 0.00, 0.00, 0.00, 0.00, 0.00, 0.00, 0
229, 24401.82, -7380.77, 35750.95, 15851.57, -187500.02, -135618.89, -28609.76, 140155.33, 0.00, 0.00, 0.00, 0.00, 0.00, 0.00, 0.00, 0.00, 0
230, 24397.15, -7403.77, 35739.86, 15832.46, -187500.02, -135688.31, -28626.39, 140159.22, 0.00, 0.00, 0.00, 0.00, 0.00, 0.00, 0.00, 0.00, 0
231, 24405.62, -7418.01, 35740.50, 15823.56, -187500.02, -135747.09, -28633.68, 140172.64, 0.00, 0.00, 0.00, 0.00, 0.00, 0.00, 0.00, 0.00, 0
232, 24438.88, -7403.21, 35765.09, 15841.64, -187500.02, -135780.67, -28617.90, 140208.64, 0.00, 0.00, 0.00, 0.00, 0.00, 0.00, 0.00, 0.00, 0
233, 24463.13, -7395.68, 35782.01, 15852.84, -187500.02, -135820.66, -28609.27, 140241.17, 0.00, 0.00, 0.00, 0.00, 0.00, 0.00, 0.00, 0.00, 0
234, 24460.36, -7416.82, 35773.65, 15836.08, -187500.02, -135888.59, -28625.12, 140250.06, 0.00, 0.00, 0.00, 0.00, 0.00, 0.00, 0.00, 0.00, 0
235, 24464.41, -7434.19, 35770.66, 15822.53, -187500.02, -135951.19, -28636.76, 140260.97, 0.00, 0.00, 0.00, 0.00, 0.00, 0.00, 0.00, 0.00, 0
236, 24496.04, -7422.86, 35794.30, 15837.86, -187500.02, -135987.38, -28625.05, 140295.25, 0.00, 0.00, 0.00, 0.00, 0.00, 0.00, 0.00, 0.00, 0
237, 24524.71, -7412.55, 35813.86, 15853.29, -187500.02, -136021.89, -28612.67, 140329.88, 0.00, 0.00, 0.00, 0.00, 0.00, 0.00, 0.00, 0.00, 0
238, 24524.62, -7431.04, 35806.22, 15839.76, -187500.02, -136084.25, -28623.35, 140340.09, 0.00, 0.00, 0.00, 0.00, 0.00, 0.00, 0.00, 0.00, 0
239, 24521.96, -7454.17, 35798.26, 15822.00, -187500.02, -136151.64, -28635.27, 140347.14, 0.00, 0.00, 0.00, 0.00, 0.00, 0.00, 0.00, 0.00, 0
240, 24548.76, -7449.10, 35815.12, 15832.28, -187500.02, -136191.44, -28625.39, 140376.91, 0.00, 0.00, 0.00, 0.00, 0.00, 0.00, 0.00, 0.00, 0
241, 24578.96, -7436.58, 35837.51, 15850.38, -187500.02, -136222.08, -28612.45, 140413.28, 0.00, 0.00, 0.00, 0.00, 0.00, 0.00, 0.00, 0.00, 0
242, 24582.13, -7451.89, 35836.04, 15841.15, -187500.02, -136277.17, -28622.91, 140428.45, 0.00, 0.00, 0.00, 0.00, 0.00, 0.00, 0.00, 0.00, 0
243, 24578.87, -7478.69, 35826.16, 15820.68, -187500.02, -136346.55, -28638.80, 140433.84, 0.00, 0.00, 0.00, 0.00, 0.00, 0.00, 0.00, 0.00, 0
244, 24601.65, -7476.90, 35840.60, 15825.93, -187500.02, -136392.70, -28630.15, 140459.39, 0.00, 0.00, 0.00, 0.00, 0.00, 0.00, 0.00, 0.00, 0
245, 24634.97, -7460.39, 35867.42, 15846.74, -187500.02, -136424.16, -28613.94, 140497.39, 0.00, 0.00, 0.00, 0.00, 0.00, 0.00, 0.00, 0.00, 0
246, 24642.48, -7467.65, 35871.04, 15845.22, -187500.02, -136478.11, -28618.90, 140517.64, 0.00, 0.00, 0.00, 0.00, 0.00, 0.00, 0.00, 0.00, 0
247, 24636.47, -7491.19, 35858.75, 15823.60, -187500.02, -136547.56, -28635.73, 140521.14, 0.00, 0.00, 0.00, 0.00, 0.00, 0.00, 0.00, 0.00, 0
248, 24652.39, -7493.94, 35868.36, 15823.38, -187500.02, -136596.44, -28632.85, 140541.86, 0.00, 0.00, 0.00, 0.00, 0.00, 0.00, 0.00, 0.00, 0
249, 24686.23, -7477.31, 35894.93, 15844.23, -187500.02, -136628.41, -28616.69, 140581.50, 0.00, 0.00, 0.00, 0.00, 0.00, 0.00, 0.00, 0.00, 0
250, 24700.40, -7478.80, 35902.80, 15846.02, -187500.02, -136677.69, -28617.25, 140605.61, 0.00, 0.00, 0.00, 0.00, 0.00, 0.00, 0.00, 0.00, 0
251, 24693.98, -7506.63, 35890.11, 15822.87, -187500.02, -136747.08, -28633.52, 140610.17, 0.00, 0.00, 0.00, 0.00, 0.00, 0.00, 0.00, 0.00, 0
252, 24704.47, -7517.05, 35894.06, 15816.50, -187500.02, -136800.34, -28637.32, 140626.73, 0.00, 0.00, 0.00, 0.00, 0.00, 0.00, 0.00, 0.00, 0
253, 24737.90, -7500.15, 35918.47, 15836.70, -187500.02, -136830.27, -28622.57, 140664.69, 0.00, 0.00, 0.00, 0.00, 0.00, 0.00, 0.00, 0.00, 0
254, 24758.89, -7498.23, 35931.05, 15845.44, -187500.02, -136870.75, -28618.03, 140693.47, 0.00, 0.00, 0.00, 0.00, 0.00, 0.00, 0.00, 0.00, 0
255, 24755.70, -7522.90, 35918.80, 15827.67, -187500.02, -136940.19, -28633.84, 140699.52, 0.00, 0.00, 0.00, 0.00, 0.00, 0.00, 0.00, 0.00, 0
0, 24762.18, -7538.48, 35917.08, 15818.98, -187500.02, -137002.86, -28640.09, 140712.55, 0.00, 0.00, 0.00, 0.00, 0.00, 0.00, 0.00, 0.00, 0
1, 24793.54, -7525.65, 35942.79, 15837.08, -187500.02, -137036.95, -28626.32, 140748.80, 0.00, 0.00, 0.00, 0.00, 0.00, 0.00, 0.00, 0.00, 0
2, 24817.28, -7517.63, 35960.94, 15849.38, -187500.02, -137073.78, -28620.11, 140781.41, 0.00, 0.00, 0.00, 0.00, 0.00, 0.00, 0.00, 0.00, 0
3, 24814.88, -7539.11, 35951.35, 15832.97, -187500.02, -137139.19, -28635.11, 140792.00, 0.00, 0.00, 0.00, 0.00, 0.00, 0.00, 0.00, 0.00, 0
4, 24815.93, -7558.56, 35944.53, 15817.95, -187500.02, -137204.33, -28645.46, 140804.73, 0.00, 0.00, 0.00, 0.00, 0.00, 0.00, 0.00, 0.00, 0
5, 24844.03, -7549.73, 35964.16, 15832.83, -187500.02, -137242.98, -28634.97, 140840.33, 0.00, 0.00, 0.00, 0.00, 0.00, 0.00, 0.00, 0.00, 0
6, 24873.82, -7539.89, 35986.04, 15849.62, -187500.02, -137277.59, -28623.96, 140876.58, 0.00, 0.00, 0.00, 0.00, 0.00, 0.00, 0.00, 0.00, 0
7, 24874.23, -7556.77, 35982.62, 15837.57, -187500.02, -137338.41, -28637.54, 140888.30, 0.00, 0.00, 0.00, 0.00, 0.00, 0.00, 0.00, 0.00, 0
8, 24871.41, -7578.36, 35973.86, 15819.78, -187500.02, -137405.56, -28651.49, 140894.97, 0.00, 0.00, 0.00, 0.00, 0.00, 0.00, 0.00, 0.00, 0
9, 24894.34, -7573.08, 35991.47, 15829.39, -187500.02, -137447.27, -28641.12, 140924.59, 0.00, 0.00, 0.00, 0.00, 0.00, 0.00, 0.00, 0.00, 0
10, 24924.63, -7558.29, 36017.76, 15848.95, -187500.02, -137480.66, -28625.86, 140960.09, 0.00, 0.00, 0.00, 0.00, 0.00, 0.00, 0.00, 0.00, 0
11, 24929.26, -7569.84, 36018.83, 15843.03, -187500.02, -137539.00, -28633.86, 140973.92, 0.00, 0.00, 0.00, 0.00, 0.00, 0.00, 0.00, 0.00, 0
12, 24924.61, -7595.03, 36007.12, 15823.04, -187500.02, -137609.09, -28649.39, 140978.69, 0.00, 0.00, 0.00, 0.00, 0.00, 0.00, 0.00, 0.00, 0
13, 24946.00, -7595.84, 36018.07, 15827.58, -187500.02, -137656.55, -28644.97, 141004.61, 0.00, 0.00, 0.00, 0.00, 0.00, 0.00, 0.00, 0.00, 0
14, 24979.17, -7581.53, 36044.33, 15848.26, -187500.02, -137687.56, -28628.47, 141041.88, 0.00, 0.00, 0.00, 0.00, 0.00, 0.00, 0.00, 0.00, 0
15, 24988.49, -7589.83, 36049.36, 15846.67, -187500.02, -137738.50, -28631.40, 141060.61, 0.00, 0.00, 0.00, 0.00, 0.00, 0.00, 0.00, 0.00, 0
16, 24982.10, -7615.10, 36035.84, 15826.00, -187500.02, -137809.39, -28649.57, 141065.86, 0.00, 0.00, 0.00, 0.00, 0.00, 0.00, 0.00, 0.00, 0
17, 24997.79, -7620.07, 36042.39, 15824.88, -187500.02, -137860.28, -28650.73, 141088.14, 0.00, 0.00, 0.00, 0.00, 0.00, 0.00, 0.00, 0.00, 0
18, 25031.25, -7602.52, 36067.98, 15844.50, -187500.02, -137889.67, -28634.26, 141127.17, 0.00, 0.00, 0.00, 0.00, 0.00, 0.00, 0.00, 0.00, 0
19, 25047.07, -7601.27, 36077.35, 15848.08, -187500.02, -137936.72, -28632.85, 141152.77, 0.00, 0.00, 0.00, 0.00, 0.00, 0.00, 0.00, 0.00, 0
20, 25042.69, -7625.10, 36065.54, 15828.01, -187500.02, -138008.20, -28648.63, 141157.14, 0.00, 0.00, 0.00, 0.00, 0.00, 0.00, 0.00, 0.00, 0
21, 25054.79, -7636.56, 36068.11, 15819.56, -187500.02, -138064.58, -28652.23, 141173.34, 0.00, 0.00, 0.00, 0.00, 0.00, 0.00, 0.00, 0.00, 0
22, 25090.03, -7621.59, 36094.27, 15837.95, -187500.02, -138095.94, -28639.11, 141210.97, 0.00, 0.00, 0.00, 0.00, 0.00, 0.00, 0.00, 0.00, 0
23, 25112.54, -7616.27, 36110.79, 15848.79, -187500.02, -138136.25, -28635.40, 141238.91, 0.00, 0.00, 0.00, 0.00, 0.00, 0.00, 0.00, 0.00, 0
24, 25109.70, -7639.76, 36103.07, 15831.27, -187500.02, -138204.50, -28651.27, 141243.27, 0.00, 0.00, 0.00, 0.00, 0.00, 0.00, 0.00, 0.00, 0
25, 25116.16, -7655.85, 36101.60, 15819.11, -187500.02, -138265.98, -28659.76, 141254.03, 0.00, 0.00, 0.00, 0.00, 0.00, 0.00, 0.00, 0.00, 0
26, 25147.30, -7644.59, 36124.53, 15835.79, -187500.02, -138301.22, -28647.18, 141287.89, 0.00, 0.00, 0.00, 0.00, 0.00, 0.00, 0.00, 0.00, 0
27, 25170.32, -7634.22, 36145.03, 15848.91, -187500.02, -138336.13, -28640.03, 141319.38, 0.00, 0.00, 0.00, 0.00, 0.00, 0.00, 0.00, 0.00, 0
28, 25168.42, -7654.27, 36138.32, 15832.48, -187500.02, -138399.14, -28654.94, 141327.53, 0.00, 0.00, 0.00, 0.00, 0.00, 0.00, 0.00, 0.00, 0
29, 25168.46, -7677.00, 36131.84, 15814.57, -187500.02, -138466.28, -28665.71, 141334.86, 0.00, 0.00, 0.00, 0.00, 0.00, 0.00, 0.00, 0.00, 0
30, 25195.31, -7669.82, 36153.03, 15827.18, -187500.02, -138505.78, -28651.81, 141367.05, 0.00, 0.00, 0.00, 0.00, 0.00, 0.00, 0.00, 0.00, 0
31, 25224.57, -7656.84, 36178.67, 15845.87, -187500.02, -138538.83, -28639.04, 141403.28, 0.00, 0.00, 0.00, 0.00, 0.00, 0.00, 0.00, 0.00, 0
32, 25228.14, -7672.26, 36177.44, 15836.05, -187500.02, -138599.34, -28649.68, 141415.91, 0.00, 0.00, 0.00, 0.00, 0.00, 0.00, 0.00, 0.00, 0
33, 25224.01, -7694.36, 36168.99, 15817.59, -187500.02, -138669.77, -28667.52, 141422.72, 0.00, 0.00, 0.00, 0.00, 0.00, 0.00, 0.00, 0.00, 0
34, 25245.65, -7691.59, 36187.34, 15825.82, -187500.02, -138714.23, -28660.10, 141451.17, 0.00, 0.00, 0.00, 0.00, 0.00, 0.00, 0.00, 0.00, 0
35, 25276.67, -7676.37, 36214.99, 15847.07, -187500.02, -138745.20, -28642.93, 141488.39, 0.00, 0.00, 0.00, 0.00, 0.00, 0.00, 0.00, 0.00, 0
36, 25283.80, -7684.48, 36218.09, 15841.91, -187500.02, -138800.63, -28647.00, 141503.97, 0.00, 0.00, 0.00, 0.00, 0.00, 0.00, 0.00, 0.00, 0
37, 25280.67, -7708.71, 36205.60, 15819.49, -187500.02, -138870.36, -28662.63, 141507.34, 0.00, 0.00, 0.00, 0.00, 0.00, 0.00, 0.00, 0.00, 0
38, 25302.24, -7708.27, 36216.04, 15822.31, -187500.02, -138917.14, -28659.23, 141531.38, 0.00, 0.00, 0.00, 0.00, 0.00, 0.00, 0.00, 0.00, 0
39, 25335.50, -7691.73, 36243.89, 15845.02, -187500.02, -138947.58, -28644.56, 141569.66, 0.00, 0.00, 0.00, 0.00, 0.00, 0.00, 0.00, 0.00, 0
40, 25346.01, -7696.44, 36251.91, 15846.42, -187500.02, -138998.14, -28646.15, 141590.97, 0.00, 0.00, 0.00, 0.00, 0.00, 0.00, 0.00, 0.00, 0
41, 25340.82, -7721.57, 36239.42, 15826.13, -187500.02, -139069.78, -28663.54, 141595.08, 0.00, 0.00, 0.00, 0.00, 0.00, 0.00, 0.00, 0.00, 0
42, 25354.57, -7726.51, 36244.98, 15823.42, -187500.02, -139124.94, -28662.27, 141614.25, 0.00, 0.00, 0.00, 0.00, 0.00, 0.00, 0.00, 0.00, 0
43, 25388.59, -7709.03, 36271.71, 15843.85, -187500.02, -139156.56, -28646.64, 141651.77, 0.00, 0.00, 0.00, 0.00, 0.00, 0.00, 0.00, 0.00, 0
44, 25404.10, -7707.80, 36283.56, 15850.45, -187500.02, -139201.67, -28644.34, 141675.50, 0.00, 0.00, 0.00, 0.00, 0.00, 0.00, 0.00, 0.00, 0
45, 25398.98, -7731.85, 36270.49, 15831.54, -187500.02, -139271.45, -28660.88, 141679.34, 0.00, 0.00, 0.00, 0.00, 0.00, 0.00, 0.00, 0.00, 0
46, 25408.14, -7745.24, 36272.63, 15823.45, -187500.02, -139328.98, -28667.09, 141692.64, 0.00, 0.00, 0.00, 0.00, 0.00, 0.00, 0.00, 0.00, 0
47, 25441.45, -7732.12, 36299.77, 15842.89, -187500.02, -139361.64, -28652.10, 141727.27, 0.00, 0.00, 0.00, 0.00, 0.00, 0.00, 0.00, 0.00, 0
48, 25463.69, -7726.98, 36316.62, 15853.49, -187500.02, -139400.50, -28646.31, 141756.09, 0.00, 0.00, 0.00, 0.00, 0.00, 0.00, 0.00, 0.00, 0
49, 25460.78, -7747.92, 36307.50, 15832.99, -187500.02, -139466.55, -28663.23, 141763.23, 0.00, 0.00, 0.00, 0.00, 0.00, 0.00, 0.00, 0.00, 0
50, 25464.98, -7765.24, 36304.13, 15817.12, -187500.02, -139530.11, -28675.07, 141774.41, 0.00, 0.00, 0.00, 0.00, 0.00, 0.00, 0.00, 0.00, 0
51, 25495.29, -7754.96, 36326.90, 15832.41, -187500.02, -139566.75, -28661.71, 141809.16, 0.00, 0.00, 0.00, 0.00, 0.00, 0.00, 0.00, 0.00, 0
52, 25522.90, -7744.59, 36346.82, 15847.72, -187500.02, -139598.73, -28649.84, 141841.02, 0.00, 0.00, 0.00, 0.00, 0.00, 0.00, 0.00, 0.00, 0
53, 25523.97, -7762.72, 36340.87, 15833.57, -187500.02, -139520.91, -28662.15, 141849.58, 0.00, 0.00, 0.00, 0.00, 0.00, 0.00, 0.00, 0.00, 0
54, 25524.89, -7784.55, 36333.68, 15816.07, -187500.02, -139385.39, -28677.89, 141855.36, 0.00, 0.00, 0.00, 0.00, 0.00, 0.00, 0.00, 0.00, 0
55, 25552.27, -7779.41, 36354.53, 15828.12, -187500.02, -139390.59, -28670.40, 141886.09, 0.00, 0.00, 0.00, 0.00, 0.00, 0.00, 0.00, 0.00, 0
56, 25585.10, -7766.27, 36379.41, 15846.89, -187500.02, -139401.39, -28656.92, 141923.20, 0.00, 0.00, 0.00, 0.00, 0.00, 0.00, 0.00, 0.00, 0
57, 25591.29, -7777.80, 36378.49, 15837.26, -187500.02, -139438.14, -28664.57, 141937.44, 0.00, 0.00, 0.00, 0.00, 0.00, 0.00, 0.00, 0.00, 0
58, 25588.92, -7800.69, 36368.03, 15815.94, -187500.02, -139487.73, -28680.62, 141941.38, 0.00, 0.00, 0.00, 0.00, 0.00, 0.00, 0.00, 0.00, 0
59, 25611.30, -7798.12, 36384.35, 15823.18, -187500.02, -139513.17, -28679.10, 141967.84, 0.00, 0.00, 0.00, 0.00, 0.00, 0.00, 0.00, 0.00, 0
60, 25643.96, -7782.99, 36411.86, 15845.22, -187500.02, -139522.89, -28666.87, 142007.13, 0.00, 0.00, 0.00, 0.00, 0.00, 0.00, 0.00, 0.00, 0
61, 25652.47, -7791.57, 36413.67, 15842.36, -187500.02, -139553.77, -28673.35, 142025.33, 0.00, 0.00, 0.00, 0.00, 0.00, 0.00, 0.00, 0.00, 0
62, 25646.97, -7816.67, 36401.22, 15819.47, -187500.02, -139603.61, -28692.20, 142028.64, 0.00, 0.00, 0.00, 0.00, 0.00, 0.00, 0.00, 0.00, 0
63, 25664.59, -7821.52, 36411.84, 15817.79, -187500.02, -139633.38, -28693.00, 142050.56, 0.00, 0.00, 0.00, 0.00, 0.00, 0.00, 0.00, 0.00, 0
64, 25699.05, -7807.78, 36438.91, 15837.60, -187500.02, -139642.20, -28678.61, 142090.30, 0.00, 0.00, 0.00, 0.00, 0.00, 0.00, 0.00, 0.00, 0
65, 25714.52, -7810.30, 36446.62, 15839.70, -187500.02, -139668.56, -28677.87, 142110.67, 0.00, 0.00, 0.00, 0.00, 0.00, 0.00, 0.00, 0.00, 0
66, 25710.00, -7833.97, 36435.20, 15818.84, -187500.02, -139719.20, -28692.51, 142113.58, 0.00, 0.00, 0.00, 0.00, 0.00, 0.00, 0.00, 0.00, 0
67, 25721.80, -7844.03, 36440.11, 15812.76, -187500.02, -139754.20, -28692.62, 142132.25, 0.00, 0.00, 0.00, 0.00, 0.00, 0.00, 0.00, 0.00, 0
68, 25755.60, -7830.08, 36467.32, 15832.34, -187500.02, -139764.45, -28677.02, 142170.48, 0.00, 0.00, 0.00, 0.00, 0.00, 0.00, 0.00, 0.00, 0
69, 25773.37, -7829.23, 36482.16, 15840.66, -187500.02, -139784.75, -28674.76, 142197.84, 0.00, 0.00, 0.00, 0.00, 0.00, 0.00, 0.00, 0.00, 0
70, 25768.30, -7854.54, 36472.10, 15822.00, -187500.02, -139831.28, -28691.35, 142201.64, 0.00, 0.00, 0.00, 0.00, 0.00, 0.00, 0.00, 0.00, 0
71, 25775.81, -7869.29, 36471.00, 15812.74, -187500.02, -139871.06, -28698.37, 142214.83, 0.00, 0.00, 0.00, 0.00, 0.00, 0.00, 0.00, 0.00, 0
72, 25807.75, -7855.01, 36496.24, 15831.09, -187500.02, -139883.67, -28685.47, 142251.48, 0.00, 0.00, 0.00, 0.00, 0.00, 0.00, 0.00, 0.00, 0
73, 25832.49, -7844.93, 36515.95, 15845.13, -187500.02, -139901.02, -28678.81, 142283.89, 0.00, 0.00, 0.00, 0.00, 0.00, 0.00, 0.00, 0.00, 0
74, 25829.88, -7865.87, 36507.01, 15829.57, -187500.02, -139945.52, -28691.35, 142292.23, 0.00, 0.00, 0.00, 0.00, 0.00, 0.00, 0.00, 0.00, 0
75, 25831.06, -7886.72, 36499.73, 15814.62, -187500.02, -139987.19, -28701.29, 142301.34, 0.00, 0.00, 0.00, 0.00, 0.00, 0.00, 0.00, 0.00, 0
76, 25859.09, -7877.34, 36521.27, 15830.49, -187500.02, -140003.39, -28691.03, 142333.09, 0.00, 0.00, 0.00, 0.00, 0.00, 0.00, 0.00, 0.00, 0
77, 25886.78, -7864.10, 36544.03, 15848.84, -187500.02, -140017.73, -28679.08, 142367.94, 0.00, 0.00, 0.00, 0.00, 0.00, 0.00, 0.00, 0.00, 0
78, 25889.27, -7879.68, 36542.04, 15838.76, -187500.02, -140058.75, -28690.94, 142378.55, 0.00, 0.00, 0.00, 0.00, 0.00, 0.00, 0.00, 0.00, 0
79, 25889.06, -7902.41, 36534.57, 15821.26, -187500.02, -140107.81, -28706.93, 142383.17, 0.00, 0.00, 0.00, 0.00, 0.00, 0.00, 0.00, 0.00, 0
80, 25914.07, -7898.70, 36551.47, 15829.62, -187500.02, -140129.31, -28698.77, 142409.95, 0.00, 0.00, 0.00, 0.00, 0.00, 0.00, 0.00, 0.00, 0
81, 25944.74, -7884.15, 36574.47, 15848.35, -187500.02, -140140.89, -28685.38, 142444.52, 0.00, 0.00, 0.00, 0.00, 0.00, 0.00, 0.00, 0.00, 0
82, 25949.84, -7894.66, 36571.36, 15841.02, -187500.02, -140176.45, -28693.00, 142459.23, 0.00, 0.00, 0.00, 0.00, 0.00, 0.00, 0.00, 0.00, 0
83, 25944.41, -7920.32, 36558.22, 15819.85, -187500.02, -140225.31, -28710.50, 142461.97, 0.00, 0.00, 0.00, 0.00, 0.00, 0.00, 0.00, 0.00, 0
84, 25964.48, -7921.10, 36570.18, 15824.61, -187500.02, -140251.58, -28708.85, 142487.27, 0.00, 0.00, 0.00, 0.00, 0.00, 0.00, 0.00, 0.00, 0
85, 25996.89, -7904.98, 36595.93, 15847.99, -187500.02, -140261.23, -28695.48, 142527.25, 0.00, 0.00, 0.00, 0.00, 0.00, 0.00, 0.00, 0.00, 0
86, 26006.70, -7912.27, 36601.02, 15847.90, -187500.02, -140289.69, -28698.79, 142548.53, 0.00, 0.00, 0.00, 0.00, 0.00, 0.00, 0.00, 0.00, 0
87, 26001.00, -7937.80, 36588.78, 15824.65, -187500.02, -140292.42, -28717.12, 142554.45, 0.00, 0.00, 0.00, 0.00, 0.00, 0.00, 0.00, 0.00, 0
88, 26016.33, -7942.76, 36597.09, 15823.60, -187500.02, -140183.52, -28720.58, 142576.28, 0.00, 0.00, 0.00, 0.00, 0.00, 0.00, 0.00, 0.00, 0
89, 26052.21, -7927.65, 36624.72, 15845.73, -187500.02, -140155.88, -28707.44, 142614.20, 0.00, 0.00, 0.00, 0.00, 0.00, 0.00, 0.00, 0.00, 0
90, 26070.20, -7931.61, 36634.69, 15851.43, -187500.02, -140064.11, -28708.15, 142637.47, 0.00, 0.00, 0.00, 0.00, 0.00, 0.00, 0.00, 0.00, 0
91, 26066.18, -7958.58, 36623.64, 15830.71, -187500.02, -140056.27, -28727.27, 142640.41, 0.00, 0.00, 0.00, 0.00, 0.00, 0.00, 0.00, 0.00, 0
92, 26076.73, -7968.22, 36627.78, 15822.42, -187500.02, -140071.03, -28734.64, 142653.95, 0.00, 0.00, 0.00, 0.00, 0.00, 0.00, 0.00, 0.00, 0
93, 26111.55, -7952.79, 36652.70, 15841.71, -187500.02, -140060.86, -28722.06, 142691.36, 0.00, 0.00, 0.00, 0.00, 0.00, 0.00, 0.00, 0.00, 0
94, 26135.27, -7947.90, 36666.56, 15849.55, -187500.02, -140059.47, -28717.10, 142718.92, 0.00, 0.00, 0.00, 0.00, 0.00, 0.00, 0.00, 0.00, 0
95, 26131.94, -7970.65, 36656.55, 15830.24, -187500.02, -140085.63, -28732.07, 142724.13, 0.00, 0.00, 0.00, 0.00, 0.00, 0.00, 0.00, 0.00, 0
96, 26135.02, -7988.89, 36655.16, 15819.09, -187500.02, -140105.28, -28743.11, 142734.70, 0.00, 0.00, 0.00, 0.00, 0.00, 0.00, 0.00, 0.00, 0
97, 26166.52, -7979.21, 36679.48, 15838.18, -187500.02, -140097.31, -28731.65, 142771.09, 0.00, 0.00, 0.00, 0.00, 0.00, 0.00, 0.00, 0.00, 0
98, 26191.57, -7970.52, 36699.80, 15852.01, -187500.02, -140091.98, -28724.27, 142804.80, 0.00, 0.00, 0.00, 0.00, 0.00, 0.00, 0.00, 0.00, 0
99, 26188.78, -7989.32, 36694.10, 15835.14, -187500.02, -140113.94, -28741.64, 142812.69, 0.00, 0.00, 0.00, 0.00, 0.00, 0.00, 0.00, 0.00, 0
100, 26188.22, -8009.30, 36688.13, 15818.28, -187500.02, -140138.25, -28758.63, 142819.63, 0.00, 0.00, 0.00, 0.00, 0.00, 0.00, 0.00, 0.00, 0
101, 26216.03, -8002.01, 36708.16, 15832.03, -187500.02, -140134.13, -28748.97, 142850.16, 0.00, 0.00, 0.00, 0.00, 0.00, 0.00, 0.00, 0.00, 0
102, 26247.05, -7990.55, 36730.69, 15850.83, -187500.02, -140125.89, -28736.21, 142886.14, 0.00, 0.00, 0.00, 0.00, 0.00, 0.00, 0.00, 0.00, 0
103, 26248.10, -8004.63, 36726.51, 15841.66, -187500.02, -140144.58, -28746.85, 142897.56, 0.00, 0.00, 0.00, 0.00, 0.00, 0.00, 0.00, 0.00, 0
104, 26245.93, -8027.79, 36716.49, 15822.44, -187500.02, -140170.67, -28763.43, 142902.81, 0.00, 0.00, 0.00, 0.00, 0.00, 0.00, 0.00, 0.00, 0
105, 26270.07, -8023.72, 36732.66, 15830.11, -187500.02, -140171.16, -28757.44, 142929.13, 0.00, 0.00, 0.00, 0.00, 0.00, 0.00, 0.00, 0.00, 0
106, 26301.16, -8008.16, 36759.43, 15851.48, -187500.02, -140159.31, -28743.83, 142965.39, 0.00, 0.00, 0.00, 0.00, 0.00, 0.00, 0.00, 0.00, 0
107, 26306.19, -8018.60, 36763.28, 15847.03, -187500.02, -140172.75, -28750.06, 142980.17, 0.00, 0.00, 0.00, 0.00, 0.00, 0.00, 0.00, 0.00, 0
108, 26300.54, -8044.59, 36753.71, 15826.93, -187500.02, -140201.98, -28766.54, 142984.02, 0.00, 0.00, 0.00, 0.00, 0.00, 0.00, 0.00, 0.00, 0
109, 26320.41, -8047.52, 36765.18, 15829.04, -187500.02, -140208.42, -28762.58, 143007.42, 0.00, 0.00, 0.00, 0.00, 0.00, 0.00, 0.00, 0.00, 0
110, 26355.16, -8034.83, 36790.95, 15848.75, -187500.02, -140196.81, -28747.38, 143046.05, 0.00, 0.00, 0.00, 0.00, 0.00, 0.00, 0.00, 0.00, 0
111, 26367.97, -8042.63, 36796.51, 15849.64, -187500.02, -140203.91, -28750.42, 143065.75, 0.00, 0.00, 0.00, 0.00, 0.00, 0.00, 0.00, 0.00, 0
112, 26362.45, -8066.61, 36783.06, 15829.21, -187500.02, -140233.34, -28768.97, 143068.39, 0.00, 0.00, 0.00, 0.00, 0.00, 0.00, 0.00, 0.00, 0
113, 26374.41, -8074.92, 36788.76, 15826.58, -187500.02, -140244.83, -28772.66, 143086.44, 0.00, 0.00, 0.00, 0.00, 0.00, 0.00, 0.00, 0.00, 0
114, 26405.75, -8060.04, 36814.84, 15847.03, -187500.02, -140233.23, -28759.92, 143122.33, 0.00, 0.00, 0.00, 0.00, 0.00, 0.00, 0.00, 0.00, 0
115, 26423.34, -8058.21, 36826.38, 15852.88, -187500.02, -140235.89, -28759.01, 143146.72, 0.00, 0.00, 0.00, 0.00, 0.00, 0.00, 0.00, 0.00, 0
116, 26418.60, -8084.09, 36816.32, 15832.54, -187500.02, -140262.94, -28776.28, 143152.38, 0.00, 0.00, 0.00, 0.00, 0.00, 0.00, 0.00, 0.00, 0
117, 26427.12, -8098.13, 36817.59, 15823.76, -187500.02, -140279.83, -28783.66, 143167.59, 0.00, 0.00, 0.00, 0.00, 0.00, 0.00, 0.00, 0.00, 0
118, 26460.29, -8082.68, 36843.27, 15843.09, -187500.02, -140271.03, -28769.46, 143203.42, 0.00, 0.00, 0.00, 0.00, 0.00, 0.00, 0.00, 0.00, 0
119, 26484.42, -8075.46, 36859.28, 15852.77, -187500.02, -140268.86, -28763.01, 143233.11, 0.00, 0.00, 0.00, 0.00, 0.00, 0.00, 0.00, 0.00, 0
120, 26481.63, -8095.96, 36847.83, 15834.24, -187500.02, -140293.78, -28778.18, 143240.45, 0.00, 0.00, 0.00, 0.00, 0.00, 0.00, 0.00, 0.00, 0
121, 26484.92, -8110.26, 36841.84, 15819.18, -187500.02, -140315.50, -28787.55, 143250.33, 0.00, 0.00, 0.00, 0.00, 0.00, 0.00, 0.00, 0.00, 0
122, 26515.43, -8098.31, 36864.24, 15833.37, -187500.02, -140309.42, -28775.28, 143283.33, 0.00, 0.00, 0.00, 0.00, 0.00, 0.00, 0.00, 0.00, 0
123, 26542.94, -8088.83, 36884.58, 15848.44, -187500.02, -140302.03, -28766.89, 143316.27, 0.00, 0.00, 0.00, 0.00, 0.00, 0.00, 0.00, 0.00, 0
124, 26542.45, -8106.55, 36877.98, 15833.57, -187500.02, -140323.00, -28779.97, 143325.61, 0.00, 0.00, 0.00, 0.00, 0.00, 0.00, 0.00, 0.00, 0
125, 26541.94, -8128.46, 36871.01, 15814.28, -187500.02, -140348.05, -28793.74, 143333.27, 0.00, 0.00, 0.00, 0.00, 0.00, 0.00, 0.00, 0.00, 0
126, 26567.93, -8122.00, 36889.14, 15825.79, -187500.02, -140346.84, -28786.05, 143363.19, 0.00, 0.00, 0.00, 0.00, 0.00, 0.00, 0.00, 0.00, 0
127, 26599.58, -8108.56, 36911.51, 15846.11, -187500.02, -140337.25, -28774.27, 143398.53, 0.00, 0.00, 0.00, 0.00, 0.00, 0.00, 0.00, 0.00, 0
128, 26605.19, -8121.64, 36907.85, 15838.02, -187500.02, -140353.30, -28784.44, 143412.83, 0.00, 0.00, 0.00, 0.00, 0.00, 0.00, 0.00, 0.00, 0
129, 26602.78, -8144.17, 36897.77, 15819.65, -187500.02, -140380.70, -28803.24, 143417.17, 0.00, 0.00, 0.00, 0.00, 0.00, 0.00, 0.00, 0.00, 0
130, 26625.87, -8141.27, 36913.52, 15828.79, -187500.02, -140382.73, -28798.77, 143442.05, 0.00, 0.00, 0.00, 0.00, 0.00, 0.00, 0.00, 0.00, 0
131, 26658.43, -8125.35, 36939.63, 15851.83, -187500.02, -140371.31, -28785.40, 143477.34, 0.00, 0.00, 0.00, 0.00, 0.00, 0.00, 0.00, 0.00, 0
132, 26665.99, -8133.51, 36940.23, 15847.50, -187500.02, -140382.77, -28791.71, 143494.02, 0.00, 0.00, 0.00, 0.00, 0.00, 0.00, 0.00, 0.00, 0
133, 26662.01, -8159.35, 36927.72, 15823.67, -187500.02, -140411.69, -28809.97, 143498.48, 0.00, 0.00, 0.00, 0.00, 0.00, 0.00, 0.00, 0.00, 0
134, 26681.30, -8162.81, 36937.96, 15821.70, -187500.02, -140420.25, -28808.85, 143518.44, 0.00, 0.00, 0.00, 0.00, 0.00, 0.00, 0.00, 0.00, 0
135, 26714.80, -8145.49, 36965.18, 15840.57, -187500.02, -140408.17, -28793.09, 143555.81, 0.00, 0.00, 0.00, 0.00, 0.00, 0.00, 0.00, 0.00, 0
136, 26728.55, -8146.92, 36971.73, 15841.40, -187500.02, -140414.30, -28793.63, 143578.61, 0.00, 0.00, 0.00, 0.00, 0.00, 0.00, 0.00, 0.00, 0
137, 26724.04, -8172.22, 36960.04, 15819.60, -187500.02, -140442.39, -28812.43, 143580.53, 0.00, 0.00, 0.00, 0.00, 0.00, 0.00, 0.00, 0.00, 0
138, 26737.83, -8181.43, 36966.05, 15814.62, -187500.02, -140455.39, -28817.68, 143597.30, 0.00, 0.00, 0.00, 0.00, 0.00, 0.00, 0.00, 0.00, 0
139, 26771.64, -8165.67, 36993.16, 15834.76, -187500.02, -140443.77, -28804.09, 143636.63, 0.00, 0.00, 0.00, 0.00, 0.00, 0.00, 0.00, 0.00, 0
140, 26789.62, -8163.35, 37006.46, 15842.96, -187500.02, -140445.75, -28802.10, 143664.84, 0.00, 0.00, 0.00, 0.00, 0.00, 0.00, 0.00, 0.00, 0
141, 26784.36, -8188.85, 36995.38, 15823.89, -187500.02, -140473.02, -28817.43, 143670.17, 0.00, 0.00, 0.00, 0.00, 0.00, 0.00, 0.00, 0.00, 0
142, 26792.21, -8204.34, 36995.18, 15813.50, -187500.02, -140490.97, -28824.83, 143682.63, 0.00, 0.00, 0.00, 0.00, 0.00, 0.00, 0.00, 0.00, 0
143, 26825.49, -8192.83, 37020.10, 15830.71, -187500.02, -140482.31, -28811.29, 143716.17, 0.00, 0.00, 0.00, 0.00, 0.00, 0.00, 0.00, 0.00, 0
144, 26849.74, -8185.97, 37038.05, 15844.88, -187500.02, -140477.56, -28803.51, 143746.14, 0.00, 0.00, 0.00, 0.00, 0.00, 0.00, 0.00, 0.00, 0
145, 26847.53, -8207.67, 37030.00, 15829.28, -187500.02, -140500.58, -28818.48, 143754.25, 0.00, 0.00, 0.00, 0.00, 0.00, 0.00, 0.00, 0.00, 0
146, 26848.91, -8226.94, 37025.17, 15815.07, -187500.02, -140523.67, -28831.34, 143761.77, 0.00, 0.00, 0.00, 0.00, 0.00, 0.00, 0.00, 0.00, 0
147, 26877.59, -8217.37, 37046.81, 15829.95, -187500.02, -140518.34, -28820.43, 143792.92, 0.00, 0.00, 0.00, 0.00, 0.00, 0.00, 0.00, 0.00, 0
148, 26905.35, -8206.22, 37068.45, 15846.45, -187500.02, -140510.86, -28810.86, 143826.91, 0.00, 0.00, 0.00, 0.00, 0.00, 0.00, 0.00, 0.00, 0
149, 26908.04, -8223.03, 37064.42, 15833.17, -187500.02, -140530.31, -28823.54, 143837.58, 0.00, 0.00, 0.00, 0.00, 0.00, 0.00, 0.00, 0.00, 0
150, 26905.49, -8244.15, 37057.40, 15813.41, -187500.02, -140556.84, -28839.61, 143843.23, 0.00, 0.00, 0.00, 0.00, 0.00, 0.00, 0.00, 0.00, 0
151, 26928.46, -8238.65, 37077.61, 15822.13, -187500.02, -140556.73, -28833.01, 143871.02, 0.00, 0.00, 0.00, 0.00, 0.00, 0.00, 0.00, 0.00, 0
152, 26959.20, -8225.60, 37102.93, 15842.78, -187500.02, -140545.75, -28821.08, 143907.64, 0.00, 0.00, 0.00, 0.00, 0.00, 0.00, 0.00, 0.00, 0
153, 26966.62, -8237.42, 37102.06, 15836.57, -187500.02, -140560.11, -28830.46, 143923.64, 0.00, 0.00, 0.00, 0.00, 0.00, 0.00, 0.00, 0.00, 0
154, 26963.00, -8260.96, 37090.55, 15816.05, -187500.02, -140588.16, -28847.63, 143930.48, 0.00, 0.00, 0.00, 0.00, 0.00, 0.00, 0.00, 0.00, 0
155, 26982.82, -8260.13, 37103.02, 15822.46, -187500.02, -140593.42, -28842.04, 143957.05, 0.00, 0.00, 0.00, 0.00, 0.00, 0.00, 0.00, 0.00, 0
156, 27014.59, -8245.71, 37131.57, 15845.80, -187500.02, -140581.16, -28825.05, 143995.19, 0.00, 0.00, 0.00, 0.00, 0.00, 0.00, 0.00, 0.00, 0
157, 27025.16, -8253.11, 37136.44, 15843.83, -187500.02, -140590.08, -28828.85, 144015.13, 0.00, 0.00, 0.00, 0.00, 0.00, 0.00, 0.00, 0.00, 0
158, 27018.81, -8278.24, 37124.66, 15821.41, -187500.02, -140619.52, -28847.25, 144019.02, 0.00, 0.00, 0.00, 0.00, 0.00, 0.00, 0.00, 0.00, 0
159, 27035.02, -8282.97, 37133.04, 15819.98, -187500.02, -140628.67, -28848.19, 144039.75, 0.00, 0.00, 0.00, 0.00, 0.00, 0.00, 0.00, 0.00, 0
160, 27069.77, -8265.54, 37160.85, 15840.26, -187500.02, -140616.58, -28833.35, 144078.84, 0.00, 0.00, 0.00, 0.00, 0.00, 0.00, 0.00, 0.00, 0
161, 27086.09, -8266.39, 37169.96, 15844.68, -187500.02, -140620.66, -28833.23, 144104.84, 0.00, 0.00, 0.00, 0.00, 0.00, 0.00, 0.00, 0.00, 0
162, 27080.34, -8291.25, 37156.76, 15825.97, -187500.02, -140649.17, -28851.38, 144110.20, 0.00, 0.00, 0.00, 0.00, 0.00, 0.00, 0.00, 0.00, 0
163, 27089.26, -8302.64, 37157.81, 15821.37, -187500.02, -140663.48, -28856.91, 144124.92, 0.00, 0.00, 0.00, 0.00, 0.00, 0.00, 0.00, 0.00, 0
164, 27120.15, -8287.04, 37183.02, 15841.51, -187500.02, -140653.28, -28843.54, 144158.70, 0.00, 0.00, 0.00, 0.00, 0.00, 0.00, 0.00, 0.00, 0
165, 27139.64, -8282.93, 37196.97, 15851.79, -187500.02, -140653.17, -28839.79, 144183.67, 0.00, 0.00, 0.00, 0.00, 0.00, 0.00, 0.00, 0.00, 0
166, 27135.93, -8306.18, 37185.99, 15834.49, -187500.02, -140678.80, -28855.25, 144187.52, 0.00, 0.00, 0.00, 0.00, 0.00, 0.00, 0.00, 0.00, 0
167, 27143.35, -8321.82, 37183.78, 15823.29, -187500.02, -140698.69, -28862.99, 144198.52, 0.00, 0.00, 0.00, 0.00, 0.00, 0.00, 0.00, 0.00, 0
168, 27175.29, -8309.53, 37207.52, 15840.46, -187500.02, -140691.28, -28849.15, 144233.55, 0.00, 0.00, 0.00, 0.00, 0.00, 0.00, 0.00, 0.00, 0
169, 27200.69, -8300.32, 37227.32, 15855.34, -187500.02, -140685.70, -28839.70, 144265.98, 0.00, 0.00, 0.00, 0.00, 0.00, 0.00, 0.00, 0.00, 0
170, 27199.01, -8319.05, 37220.93, 15839.92, -187500.02, -140708.27, -28855.01, 144275.19, 0.00, 0.00, 0.00, 0.00, 0.00, 0.00, 0.00, 0.00, 0
171, 27200.51, -8339.41, 37216.55, 15823.16, -187500.02, -140731.88, -28869.89, 144283.33, 0.00, 0.00, 0.00, 0.00, 0.00, 0.00, 0.00, 0.00, 0
172, 27229.83, -8331.32, 37237.78, 15834.53, -187500.02, -140728.19, -28859.88, 144314.17, 0.00, 0.00, 0.00, 0.00, 0.00, 0.00, 0.00, 0.00, 0
173, 27260.50, -8319.32, 37260.36, 15849.84, -187500.02, -140719.00, -28847.76, 144349.64, 0.00, 0.00, 0.00, 0.00, 0.00, 0.00, 0.00, 0.00, 0
174, 27264.99, -8334.88, 37257.41, 15837.53, -187500.02, -140736.77, -28857.76, 144363.31, 0.00, 0.00, 0.00, 0.00, 0.00, 0.00, 0.00, 0.00, 0
175, 27263.23, -8356.51, 37248.42, 15817.61, -187500.02, -140764.27, -28872.39, 144369.53, 0.00, 0.00, 0.00, 0.00, 0.00, 0.00, 0.00, 0.00, 0
176, 27288.04, -8352.13, 37266.73, 15826.17, -187500.02, -140765.36, -28866.23, 144397.81, 0.00, 0.00, 0.00, 0.00, 0.00, 0.00, 0.00, 0.00, 0
177, 27322.26, -8337.29, 37294.06, 15845.35, -187500.02, -140754.50, -28854.56, 144434.53, 0.00, 0.00, 0.00, 0.00, 0.00, 0.00, 0.00, 0.00, 0
178, 27330.64, -8347.46, 37295.23, 15838.62, -187500.02, -140767.61, -28863.86, 144450.09, 0.00, 0.00, 0.00, 0.00, 0.00, 0.00, 0.00, 0.00, 0
179, 27326.10, -8372.20, 37283.94, 15816.16, -187500.02, -140796.00, -28882.90, 144451.91, 0.00, 0.00, 0.00, 0.00, 0.00, 0.00, 0.00, 0.00, 0
180, 27345.57, -8374.42, 37295.52, 15819.76, -187500.02, -140802.47, -28883.73, 144474.73, 0.00, 0.00, 0.00, 0.00, 0.00, 0.00, 0.00, 0.00, 0
181, 27379.72, -8358.86, 37321.96, 15842.07, -187500.02, -140790.81, -28870.83, 144511.84, 0.00, 0.00, 0.00, 0.00, 0.00, 0.00, 0.00, 0.00, 0
182, 27391.30, -8363.11, 37328.48, 15841.64, -187500.02, -140799.02, -28873.36, 144533.27, 0.00, 0.00, 0.00, 0.00, 0.00, 0.00, 0.00, 0.00, 0
183, 27387.10, -8388.43, 37315.92, 15819.00, -187500.02, -140828.19, -28892.82, 144538.25, 0.00, 0.00, 0.00, 0.00, 0.00, 0.00, 0.00, 0.00, 0
184, 27403.21, -8396.92, 37322.63, 15815.20, -187500.02, -140839.39, -28897.32, 144556.84, 0.00, 0.00, 0.00, 0.00, 0.00, 0.00, 0.00, 0.00, 0
185, 27438.87, -8381.50, 37349.50, 15835.99, -187500.02, -140828.17, -28881.85, 144593.83, 0.00, 0.00, 0.00, 0.00, 0.00, 0.00, 0.00, 0.00, 0
186, 27457.22, -8380.99, 37363.71, 15841.62, -187500.02, -140830.78, -28878.77, 144617.17, 0.00, 0.00, 0.00, 0.00, 0.00, 0.00, 0.00, 0.00, 0
187, 27452.39, -8405.62, 37354.39, 15819.74, -187500.02, -140858.20, -28895.19, 144620.86, 0.00, 0.00, 0.00, 0.00, 0.00, 0.00, 0.00, 0.00, 0
188, 27460.93, -8417.69, 37356.20, 15810.33, -187500.02, -140874.30, -28899.44, 144633.66, 0.00, 0.00, 0.00, 0.00, 0.00, 0.00, 0.00, 0.00, 0
189, 27494.63, -8401.57, 37381.59, 15829.26, -187500.02, -140864.88, -28885.76, 144668.05, 0.00, 0.00, 0.00, 0.00, 0.00, 0.00, 0.00, 0.00, 0
190, 27518.06, -8394.44, 37398.33, 15841.06, -187500.02, -140863.08, -28879.50, 144696.78, 0.00, 0.00, 0.00, 0.00, 0.00, 0.00, 0.00, 0.00, 0
191, 27517.70, -8414.98, 37389.06, 15822.75, -187500.02, -140887.59, -28895.46, 144702.63, 0.00, 0.00, 0.00, 0.00, 0.00, 0.00, 0.00, 0.00, 0
192, 27524.63, -8431.70, 37385.82, 15808.79, -187500.02, -140908.77, -28906.82, 144713.69, 0.00, 0.00, 0.00, 0.00, 0.00, 0.00, 0.00, 0.00, 0
193, 27557.26, -8420.33, 37408.14, 15823.09, -187500.02, -140902.28, -28893.63, 144746.56, 0.00, 0.00, 0.00, 0.00, 0.00, 0.00, 0.00, 0.00, 0
194, 27587.08, -8410.27, 37427.61, 15839.88, -187500.02, -140896.03, -28882.65, 144778.41, 0.00, 0.00, 0.00, 0.00, 0.00, 0.00, 0.00, 0.00, 0
195, 27588.02, -8429.54, 37421.94, 15828.14, -187500.02, -140917.38, -28897.27, 144786.55, 0.00, 0.00, 0.00, 0.00, 0.00, 0.00, 0.00, 0.00, 0
196, 27588.58, -8450.95, 37415.84, 15811.89, -187500.02, -140941.78, -28911.78, 144794.11, 0.00, 0.00, 0.00, 0.00, 0.00, 0.00, 0.00, 0.00, 0
197, 27616.83, -8444.42, 37435.71, 15824.72, -187500.02, -140939.64, -28902.46, 144824.03, 0.00, 0.00, 0.00, 0.00, 0.00, 0.00, 0.00, 0.00, 0
198, 27646.83, -8431.10, 37459.80, 15845.44, -187500.02, -140930.58, -28891.17, 144859.66, 0.00, 0.00, 0.00, 0.00, 0.00, 0.00, 0.00, 0.00, 0
199, 27650.52, -8445.03, 37458.06, 15836.63, -187500.02, -140946.39, -28900.47, 144872.30, 0.00, 0.00, 0.00, 0.00, 0.00, 0.00, 0.00, 0.00, 0
200, 27647.34, -8469.10, 37447.95, 15817.61, -187500.02, -140972.72, -28916.34, 144875.91, 0.00, 0.00, 0.00, 0.00, 0.00, 0.00, 0.00, 0.00, 0
201, 27669.96, -8468.34, 37462.82, 15824.03, -187500.02, -140975.94, -28910.10, 144902.28, 0.00, 0.00, 0.00, 0.00, 0.00, 0.00, 0.00, 0.00, 0
202, 27703.22, -8452.40, 37489.73, 15845.73, -187500.02, -140964.52, -28895.87, 144938.63, 0.00, 0.00, 0.00, 0.00, 0.00, 0.00, 0.00, 0.00, 0
203, 27714.20, -8458.88, 37494.36, 15841.71, -187500.02, -140975.44, -28902.64, 144953.77, 0.00, 0.00, 0.00, 0.00, 0.00, 0.00, 0.00, 0.00, 0
204, 27710.82, -8483.47, 37482.53, 15817.93, -187500.02, -141004.92, -28921.17, 144957.98, 0.00, 0.00, 0.00, 0.00, 0.00, 0.00, 0.00, 0.00, 0
205, 27727.61, -8487.29, 37491.79, 15819.67, -187500.02, -141012.44, -28919.71, 144979.78, 0.00, 0.00, 0.00, 0.00, 0.00, 0.00, 0.00, 0.00, 0
206, 27760.71, -8471.69, 37517.58, 15842.11, -187500.02, -141000.28, -28905.52, 145016.69, 0.00, 0.00, 0.00, 0.00, 0.00, 0.00, 0.00, 0.00, 0
207, 27774.16, -8475.25, 37524.64, 15845.40, -187500.02, -141006.89, -28906.55, 145034.97, 0.00, 0.00, 0.00, 0.00, 0.00, 0.00, 0.00, 0.00, 0
208, 27766.90, -8502.04, 37510.92, 15824.68, -187500.02, -141036.02, -28925.23, 145036.47, 0.00, 0.00, 0.00, 0.00, 0.00, 0.00, 0.00, 0.00, 0
209, 27778.59, -8511.50, 37515.46, 15820.12, -187500.02, -141048.91, -28929.44, 145054.13, 0.00, 0.00, 0.00, 0.00, 0.00, 0.00, 0.00, 0.00, 0
210, 27814.89, -8496.59, 37542.86, 15841.93, -187500.02, -141037.88, -28913.84, 145092.33, 0.00, 0.00, 0.00, 0.00, 0.00, 0.00, 0.00, 0.00, 0
211, 27837.46, -8492.75, 37556.61, 15850.02, -187500.02, -141039.38, -28910.64, 145118.89, 0.00, 0.00, 0.00, 0.00, 0.00, 0.00, 0.00, 0.00, 0
212, 27833.58, -8515.21, 37546.08, 15831.65, -187500.02, -141066.39, -28928.12, 145120.39, 0.00, 0.00, 0.00, 0.00, 0.00, 0.00, 0.00, 0.00, 0
213, 27839.61, -8528.22, 37545.30, 15821.97, -187500.02, -141085.19, -28935.38, 145131.73, 0.00, 0.00, 0.00, 0.00, 0.00, 0.00, 0.00, 0.00, 0
214, 27870.90, -8514.14, 37569.21, 15838.80, -187500.02, -141075.73, -28920.45, 145168.16, 0.00, 0.00, 0.00, 0.00, 0.00, 0.00, 0.00, 0.00, 0
215, 27894.80, -8505.60, 37586.83, 15852.13, -187500.02, -141071.63, -28912.56, 145200.13, 0.00, 0.00, 0.00, 0.00, 0.00, 0.00, 0.00, 0.00, 0
216, 27893.61, -8526.03, 37579.92, 15836.28, -187500.02, -141095.63, -28929.41, 145208.19, 0.00, 0.00, 0.00, 0.00, 0.00, 0.00, 0.00, 0.00, 0
217, 27896.96, -8546.08, 37575.43, 15821.88, -187500.02, -141117.98, -28942.60, 145216.66, 0.00, 0.00, 0.00, 0.00, 0.00, 0.00, 0.00, 0.00, 0
218, 27927.61, -8537.03, 37597.04, 15839.34, -187500.02, -141112.70, -28931.02, 145249.03, 0.00, 0.00, 0.00, 0.00, 0.00, 0.00, 0.00, 0.00, 0
219, 27957.81, -8524.87, 37617.83, 15857.33, -187500.02, -141104.34, -28921.17, 145282.69, 0.00, 0.00, 0.00, 0.00, 0.00, 0.00, 0.00, 0.00, 0
220, 27961.07, -8539.73, 37612.38, 15844.44, -187500.02, -141124.22, -28936.08, 145294.30, 0.00, 0.00, 0.00, 0.00, 0.00, 0.00, 0.00, 0.00, 0
221, 27962.84, -8562.28, 37605.27, 15826.11, -187500.02, -141151.02, -28952.13, 145301.58, 0.00, 0.00, 0.00, 0.00, 0.00, 0.00, 0.00, 0.00, 0
222, 27991.74, -8559.58, 37624.46, 15837.28, -187500.02, -141149.83, -28944.17, 145330.75, 0.00, 0.00, 0.00, 0.00, 0.00, 0.00, 0.00, 0.00, 0
223, 28025.42, -8547.64, 37650.26, 15856.64, -187500.02, -141139.66, -28929.48, 145366.98, 0.00, 0.00, 0.00, 0.00, 0.00, 0.00, 0.00, 0.00, 0
224, 28032.17, -8561.66, 37653.48, 15850.54, -187500.02, -141154.02, -28937.37, 145381.69, 0.00, 0.00, 0.00, 0.00, 0.00, 0.00, 0.00, 0.00, 0
225, 28028.15, -8586.85, 37644.05, 15831.67, -187500.02, -141182.02, -28953.31, 145386.47, 0.00, 0.00, 0.00, 0.00, 0.00, 0.00, 0.00, 0.00, 0
226, 28049.11, -8587.25, 37657.12, 15838.80, -187500.02, -141186.02, -28949.44, 145409.98, 0.00, 0.00, 0.00, 0.00, 0.00, 0.00, 0.00, 0.00, 0
227, 28082.55, -8571.60, 37683.45, 15862.29, -187500.02, -141174.23, -28933.93, 145447.09, 0.00, 0.00, 0.00, 0.00, 0.00, 0.00, 0.00, 0.00, 0
228, 28094.94, -8578.06, 37688.26, 15861.58, -187500.02, -141184.67, -28938.06, 145466.38, 0.00, 0.00, 0.00, 0.00, 0.00, 0.00, 0.00, 0.00, 0
229, 28091.54, -8602.18, 37676.43, 15841.08, -187500.02, -141213.80, -28954.92, 145470.53, 0.00, 0.00, 0.00, 0.00, 0.00, 0.00, 0.00, 0.00, 0
230, 28107.36, -8605.76, 37686.36, 15839.74, -187500.02, -141223.75, -28953.80, 145491.64, 0.00, 0.00, 0.00, 0.00, 0.00, 0.00, 0.00, 0.00, 0
231, 28140.53, -8588.59, 37713.38, 15859.75, -187500.02, -141212.17, -28938.87, 145528.38, 0.00, 0.00, 0.00, 0.00, 0.00, 0.00, 0.00, 0.00, 0
232, 28156.07, -8587.92, 37721.90, 15862.72, -187500.02, -141215.83, -28938.78, 145552.19, 0.00, 0.00, 0.00, 0.00, 0.00, 0.00, 0.00, 0.00, 0
233, 28150.03, -8612.22, 37708.69, 15840.84, -187500.02, -141243.63, -28957.27, 145557.48, 0.00, 0.00, 0.00, 0.00, 0.00, 0.00, 0.00, 0.00, 0
234, 28160.80, -8622.32, 37712.06, 15834.85, -187500.02, -141259.38, -28962.07, 145573.31, 0.00, 0.00, 0.00, 0.00, 0.00, 0.00, 0.00, 0.00, 0
235, 28194.20, -8605.47, 37739.40, 15853.67, -187500.02, -141249.50, -28946.16, 145610.05, 0.00, 0.00, 0.00, 0.00, 0.00, 0.00, 0.00, 0.00, 0
236, 28215.08, -8600.59, 37755.02, 15861.18, -187500.02, -141247.75, -28942.13, 145638.13, 0.00, 0.00, 0.00, 0.00, 0.00, 0.00, 0.00, 0.00, 0
237, 28212.24, -8622.52, 37747.38, 15841.69, -187500.02, -141273.14, -28959.57, 145643.14, 0.00, 0.00, 0.00, 0.00, 0.00, 0.00, 0.00, 0.00, 0
238, 28219.28, -8637.32, 37748.41, 15830.98, -187500.02, -141292.88, -28968.80, 145655.16, 0.00, 0.00, 0.00, 0.00, 0.00, 0.00, 0.00, 0.00, 0
239, 28252.85, -8625.78, 37773.53, 15849.11, -187500.02, -141285.47, -28954.72, 145688.95, 0.00, 0.00, 0.00, 0.00, 0.00, 0.00, 0.00, 0.00, 0
240, 28281.46, -8617.92, 37794.52, 15864.66, -187500.02, -141280.03, -28945.22, 145718.75, 0.00, 0.00, 0.00, 0.00, 0.00, 0.00, 0.00, 0.00, 0
241, 28281.66, -8636.47, 37788.59, 15849.44, -187500.02, -141303.09, -28958.90, 145725.23, 0.00, 0.00, 0.00, 0.00, 0.00, 0.00, 0.00, 0.00, 0
242, 28283.61, -8654.91, 37782.96, 15833.17, -187500.02, -141326.98, -28972.38, 145732.03, 0.00, 0.00, 0.00, 0.00, 0.00, 0.00, 0.00, 0.00, 0
243, 28311.57, -8645.52, 37805.58, 15844.48, -187500.02, -141322.78, -28963.75, 145762.45, 0.00, 0.00, 0.00, 0.00, 0.00, 0.00, 0.00, 0.00, 0
244, 28341.14, -8631.64, 37828.65, 15861.42, -187500.02, -141314.66, -28952.19, 145797.36, 0.00, 0.00, 0.00, 0.00, 0.00, 0.00, 0.00, 0.00, 0
245, 28344.76, -8646.82, 37825.88, 15851.92, -187500.02, -141332.73, -28962.65, 145808.78, 0.00, 0.00, 0.00, 0.00, 0.00, 0.00, 0.00, 0.00, 0
246, 28342.75, -8672.34, 37816.58, 15832.17, -187500.02, -141359.22, -28980.24, 145815.41, 0.00, 0.00, 0.00, 0.00, 0.00, 0.00, 0.00, 0.00, 0
247, 28367.38, -8670.00, 37833.52, 15840.77, -187500.02, -141360.52, -28973.89, 145842.09, 0.00, 0.00, 0.00, 0.00, 0.00, 0.00, 0.00, 0.00, 0
248, 28399.92, -8657.14, 37858.67, 15861.18, -187500.02, -141350.19, -28960.46, 145877.38, 0.00, 0.00, 0.00, 0.00, 0.00, 0.00, 0.00, 0.00, 0
249, 28407.10, -8668.45, 37859.25, 15854.90, -187500.02, -141363.16, -28967.12, 145892.88, 0.00, 0.00, 0.00, 0.00, 0.00, 0.00, 0.00, 0.00, 0
250, 28402.21, -8693.33, 37846.93, 15833.33, -187500.02, -141391.08, -28983.93, 145896.67, 0.00, 0.00, 0.00, 0.00, 0.00, 0.00, 0.00, 0.00, 0
251, 28422.10, -8693.82, 37859.18, 15836.41, -187500.02, -141397.22, -28981.14, 145917.97, 0.00, 0.00, 0.00, 0.00, 0.00, 0.00, 0.00, 0.00, 0
252, 28457.48, -8676.88, 37886.41, 15857.82, -187500.02, -141385.03, -28966.43, 145954.56, 0.00, 0.00, 0.00, 0.00, 0.00, 0.00, 0.00, 0.00, 0
253, 28472.75, -8679.92, 37891.37, 15857.24, -187500.02, -141392.84, -28971.03, 145974.28, 0.00, 0.00, 0.00, 0.00, 0.00, 0.00, 0.00, 0.00, 0
254, 28469.10, -8705.74, 37879.21, 15835.88, -187500.02, -141421.47, -28990.70, 145977.63, 0.00, 0.00, 0.00, 0.00, 0.00, 0.00, 0.00, 0.00, 0
255, 28483.47, -8712.40, 37886.79, 15833.57, -187500.02, -141432.92, -28992.20, 145996.06, 0.00, 0.00, 0.00, 0.00, 0.00, 0.00, 0.00, 0.00, 0
0, 28518.34, -8694.29, 37913.09, 15855.63, -187500.02, -141421.53, -28973.94, 146033.13, 0.00, 0.00, 0.00, 0.00, 0.00, 0.00, 0.00, 0.00, 0
1, 28536.54, -8693.00, 37923.38, 15861.11, -187500.02, -141424.69, -28972.44, 146057.30, 0.00, 0.00, 0.00, 0.00, 0.00, 0.00, 0.00, 0.00, 0
2, 28532.13, -8720.35, 37910.52, 15838.96, -187500.02, -141452.92, -28991.75, 146059.92, 0.00, 0.00, 0.00, 0.00, 0.00, 0.00, 0.00, 0.00, 0
3, 28541.57, -8734.88, 37912.98, 15829.68, -187500.02, -141469.14, -28995.82, 146072.73, 0.00, 0.00, 0.00, 0.00, 0.00, 0.00, 0.00, 0.00, 0
4, 28574.89, -8722.25, 37943.67, 15848.55, -187500.02, -141459.33, -28978.34, 146106.70, 0.00, 0.00, 0.00, 0.00, 0.00, 0.00, 0.00, 0.00, 0
5, 28598.32, -8720.96, 37963.68, 15858.76, -187500.02, -141458.06, -28970.50, 146135.25, 0.00, 0.00, 0.00, 0.00, 0.00, 0.00, 0.00, 0.00, 0
6, 28594.56, -8744.56, 37954.40, 15840.73, -187500.02, -141483.19, -28989.59, 146141.58, 0.00, 0.00, 0.00, 0.00, 0.00, 0.00, 0.00, 0.00, 0
7, 28596.78, -8761.57, 37952.19, 15829.48, -187500.02, -141504.47, -29001.32, 146152.38, 0.00, 0.00, 0.00, 0.00, 0.00, 0.00, 0.00, 0.00, 0
8, 28626.12, -8750.73, 37978.61, 15847.30, -187500.02, -141498.58, -28986.66, 146185.56, 0.00, 0.00, 0.00, 0.00, 0.00, 0.00, 0.00, 0.00, 0
9, 28653.84, -8740.34, 38003.22, 15863.32, -187500.02, -141491.70, -28975.39, 146217.50, 0.00, 0.00, 0.00, 0.00, 0.00, 0.00, 0.00, 0.00, 0
10, 28654.87, -8758.58, 38000.22, 15848.88, -187500.02, -141512.22, -28987.66, 146226.72, 0.00, 0.00, 0.00, 0.00, 0.00, 0.00, 0.00, 0.00, 0
11, 28656.28, -8781.91, 37996.38, 15831.56, -187500.02, -141536.67, -29000.47, 146235.20, 0.00, 0.00, 0.00, 0.00, 0.00, 0.00, 0.00, 0.00, 0
12, 28684.46, -8776.61, 38019.73, 15843.63, -187500.02, -141534.61, -28990.30, 146265.05, 0.00, 0.00, 0.00, 0.00, 0.00, 0.00, 0.00, 0.00, 0
13, 28713.81, -8763.05, 38045.48, 15862.72, -187500.02, -141525.08, -28977.40, 146299.69, 0.00, 0.00, 0.00, 0.00, 0.00, 0.00, 0.00, 0.00, 0
14, 28716.02, -8775.96, 38042.89, 15852.66, -187500.02, -141541.45, -28986.81, 146312.86, 0.00, 0.00, 0.00, 0.00, 0.00, 0.00, 0.00, 0.00, 0
15, 28712.13, -8801.33, 38033.48, 15832.48, -187500.02, -141568.48, -29003.94, 146317.44, 0.00, 0.00, 0.00, 0.00, 0.00, 0.00, 0.00, 0.00, 0
16, 28735.25, -8800.15, 38049.84, 15840.59, -187500.02, -141570.72, -28999.09, 146344.75, 0.00, 0.00, 0.00, 0.00, 0.00, 0.00, 0.00, 0.00, 0
17, 28769.24, -8783.34, 38076.38, 15861.71, -187500.02, -141559.67, -28983.30, 146381.55, 0.00, 0.00, 0.00, 0.00, 0.00, 0.00, 0.00, 0.00, 0
18, 28777.56, -8792.37, 38079.30, 15858.88, -187500.02, -141571.19, -28989.52, 146397.47, 0.00, 0.00, 0.00, 0.00, 0.00, 0.00, 0.00, 0.00, 0
19, 28771.68, -8818.97, 38069.27, 15839.41, -187500.02, -141600.11, -29008.34, 146400.61, 0.00, 0.00, 0.00, 0.00, 0.00, 0.00, 0.00, 0.00, 0
20, 28787.64, -8820.20, 38080.87, 15839.52, -187500.02, -141607.81, -29007.56, 146421.16, 0.00, 0.00, 0.00, 0.00, 0.00, 0.00, 0.00, 0.00, 0
21, 28820.52, -8803.77, 38109.54, 15860.33, -187500.02, -141596.23, -28990.01, 146457.08, 0.00, 0.00, 0.00, 0.00, 0.00, 0.00, 0.00, 0.00, 0
22, 28834.29, -8807.28, 38118.38, 15863.10, -187500.02, -141602.30, -28988.85, 146478.05, 0.00, 0.00, 0.00, 0.00, 0.00, 0.00, 0.00, 0.00, 0
23, 28829.19, -8833.61, 38106.21, 15842.33, -187500.02, -141631.41, -29004.38, 146480.72, 0.00, 0.00, 0.00, 0.00, 0.00, 0.00, 0.00, 0.00, 0
24, 28840.99, -8843.60, 38111.15, 15837.55, -187500.02, -141644.83, -29005.95, 146498.11, 0.00, 0.00, 0.00, 0.00, 0.00, 0.00, 0.00, 0.00, 0
25, 28874.85, -8829.48, 38139.52, 15858.63, -187500.02, -141633.95, -28988.24, 146534.77, 0.00, 0.00, 0.00, 0.00, 0.00, 0.00, 0.00, 0.00, 0
26, 28894.84, -8829.21, 38154.52, 15866.18, -187500.02, -141634.81, -28983.71, 146560.03, 0.00, 0.00, 0.00, 0.00, 0.00, 0.00, 0.00, 0.00, 0
27, 28891.28, -8852.07, 38143.32, 15847.74, -187500.02, -141661.69, -28999.96, 146563.09, 0.00, 0.00, 0.00, 0.00, 0.00, 0.00, 0.00, 0.00, 0
28, 28898.70, -8864.79, 38143.34, 15838.20, -187500.02, -141679.44, -29007.20, 146575.61, 0.00, 0.00, 0.00, 0.00, 0.00, 0.00, 0.00, 0.00, 0
29, 28929.95, -8851.87, 38169.49, 15855.75, -187500.02, -141670.00, -28992.45, 146609.38, 0.00, 0.00, 0.00, 0.00, 0.00, 0.00, 0.00, 0.00, 0
30, 28954.72, -8845.61, 38187.77, 15869.36, -187500.02, -141666.45, -28985.43, 146637.47, 0.00, 0.00, 0.00, 0.00, 0.00, 0.00, 0.00, 0.00, 0
31, 28952.93, -8866.96, 38179.97, 15852.55, -187500.02, -141690.20, -29000.31, 146643.06, 0.00, 0.00, 0.00, 0.00, 0.00, 0.00, 0.00, 0.00, 0
32, 28956.46, -8886.52, 38175.97, 15835.90, -187500.02, -141712.48, -29010.66, 146652.78, 0.00, 0.00, 0.00, 0.00, 0.00, 0.00, 0.00, 0.00, 0
33, 28986.81, -8877.53, 38198.77, 15847.74, -187500.02, -141707.13, -28999.09, 146687.28, 0.00, 0.00, 0.00, 0.00, 0.00, 0.00, 0.00, 0.00, 0
34, 29015.22, -8865.80, 38221.62, 15862.27, -187500.02, -141700.25, -28988.13, 146720.69, 0.00, 0.00, 0.00, 0.00, 0.00, 0.00, 0.00, 0.00, 0
35, 29017.66, -8882.49, 38217.21, 15849.20, -187500.02, -141720.19, -28999.55, 146729.77, 0.00, 0.00, 0.00, 0.00, 0.00, 0.00, 0.00, 0.00, 0
36, 29016.65, -8903.50, 38209.77, 15831.74, -187500.02, -141746.13, -29014.04, 146735.64, 0.00, 0.00, 0.00, 0.00, 0.00, 0.00, 0.00, 0.00, 0
37, 29042.25, -8896.84, 38228.46, 15842.45, -187500.02, -141744.97, -29007.40, 146765.77, 0.00, 0.00, 0.00, 0.00, 0.00, 0.00, 0.00, 0.00, 0
38, 29073.14, -8882.94, 38252.17, 15863.17, -187500.02, -141734.84, -28993.43, 146802.98, 0.00, 0.00, 0.00, 0.00, 0.00, 0.00, 0.00, 0.00, 0
39, 29079.80, -8893.40, 38252.46, 15857.38, -187500.02, -141749.95, -28999.80, 146816.95, 0.00, 0.00, 0.00, 0.00, 0.00, 0.00, 0.00, 0.00, 0
40, 29076.69, -8917.72, 38243.63, 15837.46, -187500.02, -141778.09, -29015.54, 146820.53, 0.00, 0.00, 0.00, 0.00, 0.00, 0.00, 0.00, 0.00, 0
41, 29098.51, -8918.50, 38259.50, 15842.40, -187500.02, -141782.61, -29012.27, 146845.80, 0.00, 0.00, 0.00, 0.00, 0.00, 0.00, 0.00, 0.00, 0
42, 29132.06, -8903.53, 38287.51, 15863.50, -187500.02, -141770.72, -28998.57, 146880.86, 0.00, 0.00, 0.00, 0.00, 0.00, 0.00, 0.00, 0.00, 0
43, 29143.84, -8910.88, 38293.41, 15863.61, -187500.02, -141780.16, -29002.86, 146897.17, 0.00, 0.00, 0.00, 0.00, 0.00, 0.00, 0.00, 0.00, 0
44, 29140.39, -8936.72, 38282.41, 15842.27, -187500.02, -141808.94, -29020.52, 146898.61, 0.00, 0.00, 0.00, 0.00, 0.00, 0.00, 0.00, 0.00, 0
45, 29156.20, -8942.33, 38289.09, 15839.56, -187500.02, -141818.39, -29020.54, 146916.80, 0.00, 0.00, 0.00, 0.00, 0.00, 0.00, 0.00, 0.00, 0
46, 29190.13, -8927.49, 38315.16, 15858.41, -187500.02, -141807.31, -29001.10, 146951.30, 0.00, 0.00, 0.00, 0.00, 0.00, 0.00, 0.00, 0.00, 0
47, 29206.53, -8928.38, 38325.51, 15860.69, -187500.02, -141811.91, -29000.58, 146973.67, 0.00, 0.00, 0.00, 0.00, 0.00, 0.00, 0.00, 0.00, 0
48, 29202.20, -8951.54, 38314.73, 15839.43, -187500.02, -141839.03, -29018.84, 146975.30, 0.00, 0.00, 0.00, 0.00, 0.00, 0.00, 0.00, 0.00, 0
49, 29213.64, -8961.46, 38317.04, 15833.10, -187500.02, -141853.48, -29023.45, 146990.50, 0.00, 0.00, 0.00, 0.00, 0.00, 0.00, 0.00, 0.00, 0
50, 29248.46, -8946.33, 38343.43, 15853.82, -187500.02, -141843.42, -29009.68, 147027.27, 0.00, 0.00, 0.00, 0.00, 0.00, 0.00, 0.00, 0.00, 0
51, 29269.81, -8944.21, 38358.97, 15865.78, -187500.02, -141842.69, -29006.21, 147052.56, 0.00, 0.00, 0.00, 0.00, 0.00, 0.00, 0.00, 0.00, 0
52, 29266.12, -8968.50, 38350.36, 15847.81, -187500.02, -141869.06, -29022.85, 147056.22, 0.00, 0.00, 0.00, 0.00, 0.00, 0.00, 0.00, 0.00, 0
53, 29272.69, -8983.41, 38351.32, 15837.95, -187500.02, -141889.00, -29029.73, 147066.77, 0.00, 0.00, 0.00, 0.00, 0.00, 0.00, 0.00, 0.00, 0
54, 29304.72, -8971.97, 38376.58, 15857.02, -187500.02, -141880.78, -29016.27, 147100.58, 0.00, 0.00, 0.00, 0.00, 0.00, 0.00, 0.00, 0.00, 0
55, 29330.92, -8965.66, 38396.41, 15871.03, -187500.02, -141876.03, -29007.56, 147130.86, 0.00, 0.00, 0.00, 0.00, 0.00, 0.00, 0.00, 0.00, 0
56, 29329.36, -8988.51, 38388.98, 15855.37, -187500.02, -141899.31, -29021.32, 147138.56, 0.00, 0.00, 0.00, 0.00, 0.00, 0.00, 0.00, 0.00, 0
57, 29331.12, -9010.14, 38383.11, 15839.54, -187500.02, -141922.89, -29034.18, 147146.20, 0.00, 0.00, 0.00, 0.00, 0.00, 0.00, 0.00, 0.00, 0
58, 29360.42, -9001.94, 38404.16, 15853.60, -187500.02, -141918.55, -29022.51, 147177.53, 0.00, 0.00, 0.00, 0.00, 0.00, 0.00, 0.00, 0.00, 0
59, 29390.22, -8988.40, 38427.25, 15871.75, -187500.02, -141910.11, -29009.34, 147210.94, 0.00, 0.00, 0.00, 0.00, 0.00, 0.00, 0.00, 0.00, 0
60, 29394.02, -9002.41, 38425.62, 15861.76, -187500.02, -141928.59, -29019.98, 147220.19, 0.00, 0.00, 0.00, 0.00, 0.00, 0.00, 0.00, 0.00, 0
61, 29392.79, -9026.21, 38417.71, 15845.33, -187500.02, -141955.50, -29036.55, 147224.08, 0.00, 0.00, 0.00, 0.00, 0.00, 0.00, 0.00, 0.00, 0
62, 29418.00, -9024.05, 38435.25, 15855.32, -187500.02, -141955.83, -29030.71, 147250.14, 0.00, 0.00, 0.00, 0.00, 0.00, 0.00, 0.00, 0.00, 0
63, 29449.16, -9010.12, 38461.96, 15875.48, -187500.02, -141944.75, -29019.47, 147285.39, 0.00, 0.00, 0.00, 0.00, 0.00, 0.00, 0.00, 0.00, 0
64, 29454.86, -9020.09, 38465.18, 15869.56, -187500.02, -141958.11, -29027.90, 147300.88, 0.00, 0.00, 0.00, 0.00, 0.00, 0.00, 0.00, 0.00, 0
65, 29451.30, -9044.83, 38456.04, 15848.93, -187500.02, -141986.59, -29043.30, 147304.00, 0.00, 0.00, 0.00, 0.00, 0.00, 0.00, 0.00, 0.00, 0
66, 29473.86, -9046.40, 38469.92, 15854.36, -187500.02, -141992.84, -29037.04, 147326.67, 0.00, 0.00, 0.00, 0.00, 0.00, 0.00, 0.00, 0.00, 0
67, 29509.73, -9030.48, 38496.27, 15875.50, -187500.02, -141981.34, -29020.43, 147364.69, 0.00, 0.00, 0.00, 0.00, 0.00, 0.00, 0.00, 0.00, 0
68, 29522.92, -9036.77, 38503.83, 15875.01, -187500.02, -141989.14, -29023.45, 147385.92, 0.00, 0.00, 0.00, 0.00, 0.00, 0.00, 0.00, 0.00, 0
69, 29517.06, -9062.78, 38494.26, 15854.34, -187500.02, -142017.38, -29042.00, 147388.27, 0.00, 0.00, 0.00, 0.00, 0.00, 0.00, 0.00, 0.00, 0
70, 29531.77, -9067.59, 38502.33, 15851.23, -187500.02, -142028.61, -29042.16, 147406.23, 0.00, 0.00, 0.00, 0.00, 0.00, 0.00, 0.00, 0.00, 0
71, 29567.06, -9051.00, 38530.43, 15872.51, -187500.02, -142017.38, -29023.90, 147444.08, 0.00, 0.00, 0.00, 0.00, 0.00, 0.00, 0.00, 0.00, 0
72, 29585.10, -9050.18, 38541.13, 15878.97, -187500.02, -142020.05, -29018.73, 147468.17, 0.00, 0.00, 0.00, 0.00, 0.00, 0.00, 0.00, 0.00, 0
73, 29581.35, -9073.94, 38529.31, 15859.52, -187500.02, -142047.92, -29035.96, 147471.53, 0.00, 0.00, 0.00, 0.00, 0.00, 0.00, 0.00, 0.00, 0
74, 29590.89, -9084.44, 38531.79, 15852.33, -187500.02, -142063.92, -29042.54, 147486.84, 0.00, 0.00, 0.00, 0.00, 0.00, 0.00, 0.00, 0.00, 0
75, 29622.92, -9069.20, 38559.13, 15872.15, -187500.02, -142054.41, -29027.56, 147523.36, 0.00, 0.00, 0.00, 0.00, 0.00, 0.00, 0.00, 0.00, 0
76, 29644.25, -9063.34, 38574.95, 15883.13, -187500.02, -142052.70, -29020.12, 147551.50, 0.00, 0.00, 0.00, 0.00, 0.00, 0.00, 0.00, 0.00, 0
77, 29641.81, -9084.93, 38565.74, 15866.52, -187500.02, -142078.48, -29035.47, 147555.77, 0.00, 0.00, 0.00, 0.00, 0.00, 0.00, 0.00, 0.00, 0
78, 29647.64, -9100.92, 38563.24, 15853.71, -187500.02, -142099.88, -29044.41, 147564.16, 0.00, 0.00, 0.00, 0.00, 0.00, 0.00, 0.00, 0.00, 0
79, 29679.83, -9089.72, 38587.83, 15869.27, -187500.02, -142093.59, -29030.38, 147595.56, 0.00, 0.00, 0.00, 0.00, 0.00, 0.00, 0.00, 0.00, 0
80, 29707.72, -9079.95, 38608.99, 15884.56, -187500.02, -142087.16, -29019.85, 147626.31, 0.00, 0.00, 0.00, 0.00, 0.00, 0.00, 0.00, 0.00, 0
81, 29708.33, -9097.29, 38604.37, 15872.00, -187500.02, -142108.72, -29033.15, 147632.31, 0.00, 0.00, 0.00, 0.00, 0.00, 0.00, 0.00, 0.00, 0
82, 29708.37, -9116.00, 38598.76, 15855.79, -187500.02, -142134.27, -29047.01, 147638.36, 0.00, 0.00, 0.00, 0.00, 0.00, 0.00, 0.00, 0.00, 0
83, 29734.86, -9106.15, 38620.01, 15866.43, -187500.02, -142131.31, -29036.95, 147670.23, 0.00, 0.00, 0.00, 0.00, 0.00, 0.00, 0.00, 0.00, 0
